timestamps,eeg_1,eeg_2,eeg_3,eeg_4
1756364854.5719025,-445.3125,-978.02734375,-1000.0,-149.90234375
1756364854.5794003,449.21875,-593.26171875,-914.0625,527.34375
1756364854.5868986,999.51171875,-358.88671875,-792.96875,594.7265625
1756364854.5943966,225.09765625,-491.69921875,-875.48828125,-175.78125
1756364854.6018946,-587.890625,-673.828125,-986.328125,-386.23046875
1756364854.6093926,125.9765625,-894.04296875,-1000.0,376.953125
1756364854.6168904,999.51171875,-917.48046875,-998.53515625,731.93359375
1756364854.6243885,537.59765625,-944.82421875,-995.1171875,55.6640625
1756364854.6318865,-531.73828125,-891.6015625,-1000.0,-490.72265625
1756364854.6393845,-155.2734375,-604.4921875,-958.0078125,111.81640625
1756364854.6468823,954.58984375,-381.34765625,-792.96875,764.6484375
1756364854.6543806,686.03515625,-371.58203125,-788.57421875,238.28125
1756364854.6547194,-416.50390625,-722.16796875,-947.75390625,-443.84765625
1756364854.655058,-363.76953125,-905.76171875,-997.55859375,-63.96484375
1756364854.655397,682.6171875,-828.61328125,-1000.0,691.89453125
1756364854.6557355,903.3203125,-807.6171875,-946.77734375,461.42578125
1756364854.6560743,-70.3125,-629.39453125,-900.390625,-346.19140625
1756364854.6564133,-520.99609375,-885.7421875,-990.72265625,-241.2109375
1756364854.656752,366.2109375,-953.61328125,-1000.0,530.2734375
1756364854.657091,999.51171875,-575.68359375,-914.55078125,623.046875
1756364854.6574297,308.10546875,-514.16015625,-875.9765625,-153.80859375
1756364854.6577685,-581.0546875,-655.76171875,-979.00390625,-465.33203125
1756364854.6581073,96.19140625,-909.66796875,-1000.0,325.68359375
1756364854.658446,999.51171875,-850.5859375,-966.796875,759.27734375
1756364854.665665,565.91796875,-512.20703125,-903.80859375,47.8515625
1756364854.6728835,-528.80859375,-677.24609375,-972.65625,-486.81640625
1756364854.6801026,-274.90234375,-729.4921875,-1000.0,90.33203125
1756364854.6873214,835.44921875,-651.85546875,-996.09375,762.20703125
1756364854.6945405,786.62109375,-784.66796875,-1000.0,317.3828125
1756364854.701759,-269.53125,-937.5,-1000.0,-417.48046875
1756364854.708978,-399.4140625,-996.58203125,-997.55859375,-73.2421875
1756364854.7161968,634.27734375,-1000.0,-1000.0,697.75390625
1756364854.7234156,939.94140625,-776.85546875,-950.1953125,450.1953125
1756364854.7306345,-8.30078125,-521.484375,-909.66796875,-331.54296875
1756364854.7378533,-588.37890625,-614.2578125,-983.88671875,-318.359375
1756364854.745072,249.51171875,-584.47265625,-982.421875,454.1015625
1756364854.7474642,999.51171875,-318.84765625,-817.3828125,661.62109375
1756364854.7498562,396.484375,-511.71875,-846.6796875,-63.4765625
1756364854.7522483,-604.4921875,-925.29296875,-1000.0,-467.28515625
1756364854.7546403,-124.51171875,-655.76171875,-985.3515625,199.21875
1756364854.7570324,957.51953125,-397.94921875,-887.20703125,734.375
1756364854.7594247,539.55078125,-702.63671875,-939.453125,162.59765625
1756364854.7618167,-603.02734375,-1000.0,-1000.0,-421.875
1756364854.7642088,-357.421875,-971.6796875,-1000.0,40.52734375
1756364854.7666008,743.1640625,-573.73046875,-918.45703125,710.9375
1756364854.768993,796.875,-636.71875,-904.296875,361.328125
1756364854.771385,-250.0,-917.48046875,-1000.0,-396.484375
1756364854.773777,-482.91015625,-816.40625,-1000.0,-176.7578125
1756364854.7763288,513.671875,-633.30078125,-987.79296875,591.796875
1756364854.7788806,980.46875,-419.43359375,-887.20703125,514.6484375
1756364854.7814324,104.4921875,-495.60546875,-891.11328125,-234.375
1756364854.7839842,-583.984375,-645.01953125,-996.58203125,-342.7734375
1756364854.786536,186.5234375,-611.81640625,-996.58203125,414.55078125
1756364854.7890878,999.51171875,-814.94140625,-995.60546875,765.625
1756364854.791639,419.43359375,-1000.0,-997.0703125,51.7578125
1756364854.7941911,-651.3671875,-895.01953125,-1000.0,-512.6953125
1756364854.796743,-176.26953125,-532.2265625,-952.1484375,107.91015625
1756364854.7992947,934.08203125,-417.96875,-876.46484375,715.8203125
1756364854.8018465,652.34375,-596.19140625,-940.4296875,170.8984375
1756364854.8043983,-436.03515625,-649.4140625,-994.140625,-482.91015625
1756364854.8093958,-313.4765625,-766.11328125,-996.09375,-5.859375
1756364854.8143933,751.46484375,-986.81640625,-1000.0,751.953125
1756364854.8193908,781.25,-653.3203125,-888.671875,369.62890625
1756364854.8243885,-235.3515625,-436.03515625,-848.6328125,-396.97265625
1756364854.8293858,-544.43359375,-547.36328125,-956.0546875,-219.23828125
1756364854.8343835,423.33984375,-656.25,-980.46875,556.15234375
1756364854.839381,975.09765625,-792.48046875,-1000.0,563.4765625
1756364854.8443785,101.07421875,-591.796875,-972.16796875,-242.1875
1756364854.849376,-633.7890625,-777.83203125,-975.09765625,-359.375
1756364854.8543737,85.44921875,-915.0390625,-1000.0,386.23046875
1756364854.859371,970.21484375,-401.3671875,-814.453125,650.390625
1756364854.8643684,434.5703125,-291.50390625,-770.5078125,-4.39453125
1756364854.8669915,-593.26171875,-792.96875,-996.58203125,-469.23828125
1756364854.8696146,-227.5390625,-882.8125,-1000.0,141.6015625
1756364854.8722377,860.3515625,-384.27734375,-845.703125,736.81640625
1756364854.874861,652.83203125,-343.26171875,-817.3828125,219.7265625
1756364854.877484,-327.1484375,-809.08203125,-995.60546875,-334.9609375
1756364854.8801072,-283.69140625,-1000.0,-1000.0,83.984375
1756364854.8827302,628.41796875,-874.0234375,-1000.0,651.3671875
1756364854.885353,848.14453125,-481.4453125,-895.5078125,388.18359375
1756364854.8879766,-126.953125,-435.546875,-891.11328125,-344.7265625
1756364854.8905995,-594.23828125,-655.2734375,-1000.0,-248.046875
1756364854.8932228,294.921875,-580.078125,-1000.0,509.27734375
1756364854.895846,975.5859375,-510.25390625,-977.05078125,639.6484375
1756364854.9007297,218.26171875,-877.44140625,-988.76953125,-85.9375
1756364854.9056134,-647.94921875,-870.60546875,-1000.0,-435.05859375
1756364854.9104972,0.48828125,-529.296875,-987.3046875,267.08984375
1756364854.9153807,991.69921875,-530.2734375,-968.26171875,723.14453125
1756364854.9202645,521.97265625,-666.9921875,-997.55859375,64.94140625
1756364854.9251482,-552.24609375,-849.12109375,-1000.0,-487.3046875
1756364854.930032,-272.94921875,-975.09765625,-998.046875,82.51953125
1756364854.9349158,833.0078125,-926.26953125,-1000.0,761.71875
1756364854.9397993,724.12109375,-994.62890625,-1000.0,292.96875
1756364854.944683,-397.94921875,-752.9296875,-976.5625,-500.9765625
1756364854.9495668,-472.16796875,-532.2265625,-963.37890625,-146.97265625
1756364854.9544506,586.42578125,-419.43359375,-906.73828125,626.953125
1756364854.9594471,909.1796875,-345.21484375,-833.49609375,455.56640625
1756364854.9644437,-36.62109375,-420.41015625,-871.58203125,-304.6875
1756364854.96944,-583.49609375,-589.84375,-975.09765625,-289.0625
1756364854.9744363,268.06640625,-759.27734375,-995.60546875,475.5859375
1756364854.979433,999.51171875,-577.1484375,-929.6875,633.7890625
1756364854.9844294,300.78125,-702.1484375,-968.75,-67.3828125
1756364854.989426,-629.8828125,-1000.0,-1000.0,-413.57421875
1756364854.9944224,-47.36328125,-875.48828125,-1000.0,239.74609375
1756364854.999419,980.95703125,-492.1875,-916.015625,725.09765625
1756364855.0044155,608.3984375,-359.86328125,-836.9140625,120.60546875
1756364855.0094118,-444.3359375,-673.828125,-958.0078125,-436.5234375
1756364855.0144083,-246.58203125,-1000.0,-1000.0,131.8359375
1756364855.0169094,772.4609375,-795.8984375,-949.70703125,721.19140625
1756364855.0194106,747.55859375,-399.4140625,-848.6328125,264.6484375
1756364855.0219116,-275.87890625,-527.34375,-938.96484375,-422.8515625
1756364855.0244129,-480.95703125,-573.73046875,-981.93359375,-163.0859375
1756364855.026914,531.73828125,-479.98046875,-936.03515625,603.515625
1756364855.0294151,965.8203125,-671.38671875,-991.69921875,506.34765625
1756364855.031916,55.6640625,-937.01171875,-1000.0,-261.23046875
1756364855.0344172,-627.44140625,-937.5,-997.0703125,-406.73828125
1756364855.0369184,148.92578125,-659.66796875,-1000.0,289.55078125
1756364855.0394194,998.046875,-701.66015625,-1000.0,603.515625
1756364855.041921,344.23828125,-737.3046875,-999.0234375,-76.171875
1756364855.0444217,-624.0234375,-722.65625,-999.0234375,-507.32421875
1756364855.0493114,-106.93359375,-723.14453125,-1000.0,155.76171875
1756364855.0542011,946.2890625,-481.4453125,-931.640625,692.3828125
1756364855.0590909,683.10546875,-722.16796875,-939.453125,194.82421875
1756364855.0639806,-416.9921875,-1000.0,-1000.0,-445.80078125
1756364855.0688703,-359.86328125,-828.61328125,-997.0703125,-59.08203125
1756364855.07376,739.74609375,-700.1953125,-1000.0,689.94140625
1756364855.07865,822.265625,-583.984375,-870.60546875,345.703125
1756364855.0835395,-186.5234375,-494.62890625,-808.10546875,-397.4609375
1756364855.0884297,-486.81640625,-614.74609375,-958.0078125,-214.35546875
1756364855.0933192,470.21484375,-676.26953125,-1000.0,557.12890625
1756364855.098209,999.51171875,-897.4609375,-998.046875,577.1484375
1756364855.1030986,152.34375,-785.15625,-959.47265625,-229.4921875
1756364855.108327,-624.0234375,-819.82421875,-990.72265625,-402.83203125
1756364855.1135545,61.03515625,-701.171875,-915.0390625,345.703125
1756364855.1187823,969.23828125,-289.55078125,-718.26171875,678.22265625
1756364855.1240103,423.33984375,-407.71484375,-797.8515625,10.25390625
1756364855.1292384,-579.1015625,-660.64453125,-966.30859375,-466.796875
1756364855.1344662,-139.6484375,-949.21875,-1000.0,201.171875
1756364855.1396942,914.55078125,-1000.0,-1000.0,776.85546875
1756364855.1449225,644.53125,-620.60546875,-876.953125,155.76171875
1756364855.15015,-400.390625,-522.94921875,-880.859375,-481.93359375
1756364855.155378,-383.30078125,-649.90234375,-1000.0,-59.5703125
1756364855.160606,645.01953125,-411.1328125,-862.3046875,648.4375
1756364855.165834,838.8671875,-327.63671875,-766.6015625,390.625
1756364855.1755643,-150.390625,-451.66015625,-849.609375,-352.5390625
1756364855.185295,-566.89453125,-783.203125,-961.42578125,-227.05078125
1756364855.1950257,323.2421875,-776.3671875,-965.8203125,518.06640625
1756364855.2047565,964.35546875,-588.8671875,-957.51953125,586.9140625
1756364855.2144868,182.12890625,-670.41015625,-998.046875,-158.69140625
1756364855.2242174,-658.203125,-885.7421875,-993.1640625,-406.25
1756364855.233948,-8.7890625,-871.09375,-1000.0,299.31640625
1756364855.2436786,959.9609375,-382.8125,-826.171875,689.453125
1756364855.2534091,491.69921875,-441.40625,-810.05859375,61.5234375
1756364855.2631395,-558.59375,-895.5078125,-1000.0,-464.84375
1756364855.2728703,-270.01953125,-776.3671875,-1000.0,77.1484375
1756364855.2826009,814.94140625,-486.328125,-941.40625,710.44921875
1756364855.2829263,677.734375,-376.46484375,-786.62109375,248.046875
1756364855.2832518,-423.828125,-502.9296875,-842.7734375,-445.80078125
1756364855.2835772,-521.484375,-684.08203125,-1000.0,-118.65234375
1756364855.2839026,506.8359375,-509.27734375,-961.42578125,603.02734375
1756364855.284228,839.35546875,-642.08984375,-940.91796875,458.49609375
1756364855.2845535,-79.1015625,-988.28125,-997.0703125,-220.21484375
1756364855.284879,-655.2734375,-1000.0,-1000.0,-285.64453125
1756364855.2852044,162.109375,-843.26171875,-987.79296875,389.6484375
1756364855.28553,917.48046875,-380.37109375,-771.484375,578.125
1756364855.2858553,229.00390625,-298.828125,-700.68359375,-136.71875
1756364855.2861807,-654.78515625,-597.65625,-926.26953125,-464.35546875
1756364855.2865062,-72.75390625,-633.7890625,-985.3515625,231.4453125
1756364855.286841,964.84375,-757.32421875,-979.00390625,738.76953125
1756364855.2871752,560.546875,-817.3828125,-984.375,90.33203125
1756364855.2875097,-545.41015625,-602.5390625,-964.84375,-513.671875
1756364855.2878442,-328.61328125,-626.953125,-998.53515625,40.52734375
1756364855.2881787,739.74609375,-480.95703125,-961.9140625,699.70703125
1756364855.2885132,723.6328125,-705.56640625,-978.515625,310.05859375
1756364855.288848,-327.63671875,-955.56640625,-1000.0,-429.6875
1756364855.2891824,-541.015625,-810.05859375,-992.67578125,-182.12890625
1756364855.289517,431.640625,-828.61328125,-1000.0,588.37890625
1756364855.2898514,826.171875,-735.3515625,-979.4921875,470.703125
1756364855.290186,-78.61328125,-515.625,-873.53515625,-301.7578125
1756364855.2905204,-692.87109375,-579.58984375,-925.78125,-364.74609375
1756364855.2925146,142.578125,-648.92578125,-1000.0,390.13671875
1756364855.294509,973.6328125,-519.04296875,-940.91796875,634.27734375
1756364855.296503,316.40625,-478.02734375,-895.99609375,-78.61328125
1756364855.2984974,-623.046875,-769.04296875,-973.14453125,-438.96484375
1756364855.3004916,-131.34765625,-914.55078125,-999.51171875,223.14453125
1756364855.302486,877.44140625,-847.16796875,-1000.0,699.70703125
1756364855.30448,541.50390625,-767.08984375,-970.21484375,103.02734375
1756364855.3064742,-560.546875,-597.65625,-926.26953125,-538.0859375
1756364855.3084686,-410.15625,-616.2109375,-972.16796875,-56.15234375
1756364855.3104627,687.01171875,-569.3359375,-969.7265625,629.39453125
1756364855.312457,707.51953125,-461.9140625,-874.0234375,272.4609375
1756364855.3144512,-324.70703125,-745.60546875,-932.12890625,-393.06640625
1756364855.3220108,-585.44921875,-1000.0,-1000.0,-149.90234375
1756364855.32957,340.8203125,-1000.0,-1000.0,576.171875
1756364855.3371296,802.24609375,-772.94921875,-915.52734375,500.48828125
1756364855.344689,-48.33984375,-409.1796875,-791.015625,-298.33984375
1756364855.3522484,-728.02734375,-520.99609375,-906.25,-446.2890625
1756364855.359808,17.08984375,-705.078125,-1000.0,313.4765625
1756364855.3673673,927.734375,-640.625,-987.3046875,645.5078125
1756364855.3749268,384.27734375,-803.7109375,-984.375,-8.30078125
1756364855.382486,-623.53515625,-818.359375,-972.65625,-501.46484375
1756364855.3900456,-222.16796875,-476.07421875,-907.71484375,91.796875
1756364855.397605,835.44921875,-259.765625,-763.671875,692.3828125
1756364855.4051645,602.05078125,-156.25,-657.71484375,167.48046875
1756364855.4053864,-451.171875,-454.58984375,-864.74609375,-473.6328125
1756364855.4056084,-416.50390625,-472.65625,-958.984375,-72.265625
1756364855.4058304,661.1328125,-591.30859375,-951.171875,685.546875
1756364855.4060524,846.6796875,-782.71484375,-944.82421875,413.57421875
1756364855.4062743,-169.43359375,-526.3671875,-887.6953125,-362.3046875
1756364855.4064963,-561.5234375,-874.51171875,-997.55859375,-211.42578125
1756364855.4067185,330.56640625,-890.625,-992.67578125,521.97265625
1756364855.4069405,926.26953125,-426.26953125,-825.68359375,563.4765625
1756364855.4071624,137.20703125,-416.50390625,-813.4765625,-166.015625
1756364855.4073844,-677.734375,-589.84375,-960.44921875,-404.78515625
1756364855.4076064,-8.7890625,-872.55859375,-1000.0,335.44921875
1756364855.4078283,927.734375,-749.0234375,-944.82421875,707.03125
1756364855.4149368,431.15234375,-420.41015625,-835.44921875,23.4375
1756364855.4220452,-591.796875,-561.5234375,-906.73828125,-476.07421875
1756364855.4291537,-262.20703125,-635.25390625,-1000.0,111.81640625
1756364855.436262,837.890625,-432.6171875,-887.20703125,717.7734375
1756364855.4433706,682.6171875,-395.01953125,-810.05859375,245.1171875
1756364855.450479,-398.92578125,-832.51953125,-972.16796875,-432.12890625
1756364855.4575877,-401.85546875,-1000.0,-1000.0,-63.96484375
1756364855.464696,628.90625,-1000.0,-1000.0,684.5703125
1756364855.4718044,875.48828125,-791.015625,-921.38671875,412.109375
1756364855.4789128,-83.49609375,-488.28125,-844.7265625,-359.86328125
1756364855.4860213,-579.1015625,-555.17578125,-927.734375,-312.98828125
1756364855.4931295,276.3671875,-448.2421875,-857.91015625,440.91796875
1756364855.4935796,971.19140625,-173.828125,-661.62109375,602.05078125
1756364855.4940293,267.578125,-478.515625,-792.96875,-102.05078125
1756364855.4944792,-613.76953125,-899.90234375,-1000.0,-410.64453125
1756364855.4949288,-47.36328125,-605.95703125,-953.125,246.58203125
1756364855.4953787,969.23828125,-400.87890625,-848.14453125,709.47265625
1756364855.4958286,568.359375,-693.84765625,-939.453125,109.375
1756364855.4962783,-491.69921875,-922.8515625,-1000.0,-463.37890625
1756364855.4967282,-257.8125,-705.078125,-992.67578125,43.9453125
1756364855.4971778,804.6875,-596.6796875,-989.74609375,667.96875
1756364855.4976275,760.7421875,-871.58203125,-995.60546875,299.31640625
1756364855.4980774,-323.73046875,-971.6796875,-1000.0,-406.25
1756364855.4985273,-534.66796875,-712.890625,-993.1640625,-203.61328125
1756364855.503193,485.83984375,-469.23828125,-901.85546875,555.6640625
1756364855.5078585,898.4375,-366.69921875,-789.0625,461.42578125
1756364855.512524,-5.37109375,-428.22265625,-813.96484375,-289.0625
1756364855.5171895,-609.375,-550.78125,-932.6171875,-335.44921875
1756364855.5218549,197.75390625,-630.37109375,-1000.0,425.29296875
1756364855.5265205,981.93359375,-861.81640625,-999.0234375,708.984375
1756364855.531186,290.52734375,-1000.0,-997.0703125,12.20703125
1756364855.5358517,-694.3359375,-891.11328125,-994.140625,-459.47265625
1756364855.540517,-134.27734375,-688.4765625,-1000.0,188.4765625
1756364855.5451827,949.70703125,-406.73828125,-853.02734375,721.6796875
1756364855.549848,622.0703125,-302.734375,-745.60546875,131.8359375
1756364855.5545137,-463.8671875,-625.0,-927.24609375,-469.7265625
1756364855.5596194,-333.0078125,-934.5703125,-1000.0,36.1328125
1756364855.564725,737.3046875,-831.0546875,-979.00390625,705.078125
1756364855.569831,798.828125,-420.8984375,-785.64453125,319.82421875
1756364855.5749362,-194.3359375,-408.203125,-788.57421875,-388.671875
1756364855.580042,-455.56640625,-637.6953125,-975.09765625,-190.91796875
1756364855.5851474,496.09375,-814.94140625,-1000.0,541.50390625
1756364855.590253,953.125,-720.703125,-965.33203125,489.74609375
1756364855.5953588,72.75390625,-516.6015625,-942.87109375,-276.3671875
1756364855.6004643,-608.3984375,-814.94140625,-988.76953125,-351.07421875
1756364855.60557,116.69921875,-952.1484375,-1000.0,388.671875
1756364855.6106756,958.49609375,-486.81640625,-871.09375,621.09375
1756364855.6157813,408.69140625,-354.98046875,-785.64453125,-38.57421875
1756364855.6181753,-581.0546875,-642.08984375,-968.26171875,-477.05078125
1756364855.6205692,-163.0859375,-641.11328125,-1000.0,143.06640625
1756364855.622963,906.25,-589.35546875,-979.98046875,720.703125
1756364855.625357,679.6875,-657.71484375,-977.5390625,197.265625
1756364855.6277509,-386.23046875,-837.890625,-986.81640625,-443.359375
1756364855.6301448,-371.09375,-1000.0,-1000.0,-30.76171875
1756364855.6325388,663.0859375,-853.02734375,-997.55859375,656.73828125
1756364855.6349328,831.54296875,-515.13671875,-872.55859375,357.91015625
1756364855.6373267,-140.13671875,-483.3984375,-844.7265625,-358.88671875
1756364855.6397204,-531.73828125,-622.55859375,-964.35546875,-221.19140625
1756364855.6421144,367.67578125,-607.91015625,-990.72265625,520.01953125
1756364855.6445084,970.703125,-704.58984375,-991.69921875,585.44921875
1756364855.6496177,195.3125,-958.984375,-997.0703125,-98.14453125
1756364855.654727,-640.625,-919.43359375,-1000.0,-381.34765625
1756364855.6598363,2.9296875,-601.5625,-979.98046875,266.6015625
1756364855.6649458,971.19140625,-272.4609375,-742.1875,679.19921875
1756364855.6700552,487.3046875,-284.66796875,-727.05078125,46.875
1756364855.6751647,-531.25,-763.671875,-982.421875,-439.453125
1756364855.680274,-211.42578125,-944.82421875,-1000.0,139.16015625
1756364855.685383,854.00390625,-895.5078125,-989.74609375,789.55078125
1756364855.6904926,716.30859375,-979.98046875,-1000.0,319.82421875
1756364855.695602,-367.67578125,-752.44140625,-970.21484375,-445.3125
1756364855.7007115,-421.875,-447.265625,-876.953125,-100.09765625
1756364855.7058208,617.67578125,-306.640625,-802.734375,635.25390625
1756364855.7106514,887.6953125,-247.55859375,-753.41796875,434.5703125
1756364855.7154818,-70.80078125,-334.9609375,-802.24609375,-309.5703125
1756364855.720312,-573.2421875,-502.9296875,-932.6171875,-281.25
1756364855.7251427,265.625,-606.4453125,-981.93359375,475.5859375
1756364855.7299733,940.4296875,-403.80859375,-848.6328125,603.515625
1756364855.7348037,201.66015625,-569.3359375,-903.80859375,-114.2578125
1756364855.739634,-685.546875,-891.11328125,-1000.0,-420.8984375
1756364855.7444646,-80.56640625,-659.66796875,-977.05078125,259.765625
1756364855.7492952,933.59375,-609.86328125,-980.46875,722.16796875
1756364855.7541256,499.51171875,-567.87109375,-922.8515625,82.03125
1756364855.758956,-559.5703125,-624.0234375,-934.5703125,-472.16796875
1756364855.7637866,-286.62109375,-1000.0,-1000.0,132.8125
1756364855.76634,745.60546875,-899.4140625,-983.88671875,718.26171875
1756364855.7688937,660.64453125,-499.0234375,-875.9765625,221.19140625
1756364855.7714472,-349.609375,-443.84765625,-851.07421875,-424.8046875
1756364855.774001,-485.83984375,-422.36328125,-857.421875,-117.1875
1756364855.7765543,525.390625,-394.53125,-870.1171875,623.53515625
1756364855.779108,880.859375,-578.125,-971.19140625,505.859375
1756364855.7816615,-35.15625,-843.75,-1000.0,-222.16796875
1756364855.784215,-633.30078125,-850.5859375,-998.046875,-296.38671875
1756364855.786769,166.9921875,-470.21484375,-919.921875,410.15625
1756364855.789322,953.125,-266.11328125,-766.6015625,636.71875
1756364855.7918758,253.41796875,-265.625,-764.6484375,-62.5
1756364855.7944293,-695.80078125,-694.3359375,-944.3359375,-424.8046875
1756364855.7970428,-169.921875,-784.66796875,-1000.0,216.796875
1756364855.7996566,853.02734375,-274.90234375,-821.2890625,704.58984375
1756364855.8022702,541.015625,-624.0234375,-875.48828125,181.15234375
1756364855.804884,-549.31640625,-954.1015625,-1000.0,-437.98828125
1756364855.8074975,-431.640625,-538.57421875,-923.828125,-33.69140625
1756364855.810111,668.45703125,-570.3125,-955.078125,667.48046875
1756364855.8127248,714.84375,-695.80078125,-998.046875,316.40625
1756364855.8153384,-317.87109375,-536.62109375,-897.94921875,-399.4140625
1756364855.8179522,-561.03515625,-475.09765625,-905.76171875,-206.54296875
1756364855.8205657,410.15625,-437.98828125,-906.73828125,532.71484375
1756364855.8231795,902.34375,-770.5078125,-963.8671875,520.5078125
1756364855.825793,29.296875,-761.71875,-944.82421875,-266.6015625
1756364855.8307428,-656.73828125,-518.06640625,-935.05859375,-410.64453125
1756364855.8356926,94.7265625,-494.140625,-933.59375,359.375
1756364855.8406425,939.94140625,-533.203125,-907.71484375,663.57421875
1756364855.845592,348.14453125,-507.8125,-878.90625,-47.36328125
1756364855.8505418,-630.37109375,-533.203125,-909.1796875,-483.3984375
1756364855.8554916,-171.38671875,-883.30078125,-1000.0,196.2890625
1756364855.8604414,873.53515625,-1000.0,-1000.0,757.8125
1756364855.8653913,565.4296875,-676.26953125,-917.48046875,134.27734375
1756364855.8703408,-481.4453125,-475.09765625,-881.34765625,-494.140625
1756364855.8752906,-399.4140625,-508.30078125,-937.98828125,-35.64453125
1756364855.8802404,647.4609375,-378.41796875,-872.55859375,646.97265625
1756364855.8851902,798.33984375,-239.74609375,-733.3984375,351.5625
1756364855.8901277,-185.546875,-265.625,-735.83984375,-355.95703125
1756364855.8950653,-535.15625,-678.7109375,-940.91796875,-210.9375
1756364855.900003,366.2109375,-660.64453125,-968.26171875,485.83984375
1756364855.9049404,927.734375,-253.41796875,-792.96875,502.9296875
1756364855.9098778,136.71875,-413.57421875,-879.39453125,-218.75
1756364855.9148154,-622.55859375,-842.28515625,-1000.0,-416.015625
1756364855.919753,42.48046875,-964.84375,-1000.0,304.6875
1756364855.9246905,944.3359375,-645.99609375,-954.1015625,640.625
1756364855.929628,441.40625,-550.29296875,-932.12890625,-27.34375
1756364855.9345655,-540.0390625,-955.56640625,-1000.0,-442.3828125
1756364855.9395032,-217.7734375,-926.7578125,-1000.0,108.88671875
1756364855.9444406,810.546875,-431.640625,-858.88671875,610.3515625
1756364855.9469986,670.8984375,-255.37109375,-731.4453125,148.4375
1756364855.9495568,-383.7890625,-465.8203125,-872.55859375,-484.375
1756364855.9521148,-432.6171875,-600.5859375,-981.4453125,-112.79296875
1756364855.954673,585.9375,-358.3984375,-829.1015625,580.56640625
1756364855.957231,851.07421875,-427.24609375,-809.5703125,389.6484375
1756364855.9597893,-92.7734375,-977.05078125,-998.53515625,-322.265625
1756364855.9623473,-579.1015625,-915.52734375,-1000.0,-307.12890625
1756364855.9649053,273.4375,-574.70703125,-957.51953125,443.84765625
1756364855.9674635,947.265625,-593.75,-955.078125,588.8671875
1756364855.9700215,208.0078125,-505.37109375,-851.5625,-148.4375
1756364855.9725797,-638.18359375,-529.78515625,-893.06640625,-420.8984375
1756364855.9751377,-35.64453125,-487.79296875,-937.01171875,268.06640625
1756364855.9826908,952.1484375,-666.015625,-913.57421875,747.55859375
1756364855.990244,481.93359375,-974.609375,-1000.0,113.76953125
1756364855.9977973,-624.0234375,-669.921875,-962.40234375,-520.01953125
1756364856.0053504,-263.671875,-515.13671875,-954.1015625,95.21484375
1756364856.0129037,696.2890625,-457.03125,-931.640625,633.7890625
1756364856.0204568,526.3671875,-637.20703125,-953.61328125,126.953125
1756364856.02801,-341.796875,-818.359375,-1000.0,-421.38671875
1756364856.035563,-488.76953125,-667.48046875,-992.1875,-143.5546875
1756364856.043116,521.97265625,-904.296875,-1000.0,624.51171875
1756364856.0506692,844.7265625,-761.71875,-917.48046875,439.453125
1756364856.0582223,-79.1015625,-413.0859375,-842.7734375,-331.54296875
1756364856.0657756,-637.6953125,-721.6796875,-976.07421875,-321.2890625
1756364856.0661175,143.06640625,-557.12890625,-915.0390625,389.16015625
1756364856.0664594,919.921875,-243.1640625,-742.67578125,591.796875
1756364856.0668013,251.953125,-261.71875,-746.58203125,-119.62890625
1756364856.0671432,-665.0390625,-639.6484375,-912.109375,-449.21875
1756364856.067485,-124.0234375,-843.26171875,-987.3046875,245.1171875
1756364856.067827,881.34765625,-671.875,-984.86328125,715.8203125
1756364856.0681689,509.27734375,-670.41015625,-990.234375,108.88671875
1756364856.0685108,-555.6640625,-634.27734375,-971.6796875,-491.2109375
1756364856.068853,-359.86328125,-630.859375,-1000.0,5.37109375
1756364856.0691946,691.40625,-391.11328125,-861.81640625,673.828125
1756364856.0695364,716.30859375,-219.23828125,-712.40234375,310.546875
1756364856.0698783,-295.41015625,-706.54296875,-901.3671875,-378.90625
1756364856.0769262,-494.140625,-852.5390625,-1000.0,-155.2734375
1756364856.083974,492.67578125,-603.02734375,-993.65234375,579.1015625
1756364856.0910215,878.90625,-632.8125,-992.67578125,494.62890625
1756364856.0980694,4.8828125,-479.4921875,-901.3671875,-260.25390625
1756364856.105117,-648.4375,-532.2265625,-920.8984375,-352.5390625
1756364856.112165,110.83984375,-838.8671875,-1000.0,395.99609375
1756364856.1192126,945.3125,-769.53125,-994.62890625,660.64453125
1756364856.1262605,351.5625,-798.33984375,-986.328125,-2.9296875
1756364856.1333084,-618.1640625,-1000.0,-1000.0,-400.87890625
1756364856.140356,-223.14453125,-839.35546875,-967.7734375,149.90234375
1756364856.1474037,796.875,-329.58984375,-770.01953125,669.43359375
1756364856.1544516,539.55078125,-212.40234375,-684.08203125,161.1328125
1756364856.1546805,-504.8828125,-431.15234375,-832.03125,-453.125
1756364856.154909,-409.1796875,-432.6171875,-883.7890625,-16.6015625
1756364856.1551373,668.45703125,-449.21875,-866.69921875,682.12890625
1756364856.155366,774.4140625,-510.25390625,-882.32421875,358.3984375
1756364856.1555943,-221.19140625,-488.28125,-879.8828125,-391.6015625
1756364856.155823,-509.765625,-778.3203125,-989.2578125,-227.05078125
1756364856.1560516,395.01953125,-832.03125,-1000.0,505.37109375
1756364856.15628,918.9453125,-553.7109375,-909.1796875,504.8828125
1756364856.1565087,93.75,-415.52734375,-818.84765625,-247.0703125
1756364856.156737,-670.41015625,-441.89453125,-889.16015625,-448.2421875
1756364856.1569655,39.55078125,-753.90625,-984.375,309.5703125
1756364856.1571944,938.4765625,-783.203125,-914.0625,655.2734375
1756364856.1643543,355.46875,-307.12890625,-720.703125,-58.10546875
1756364856.1715145,-657.2265625,-429.6875,-846.6796875,-505.37109375
1756364856.1786742,-284.1796875,-572.265625,-987.3046875,87.40234375
1756364856.1858342,768.06640625,-377.9296875,-849.609375,666.50390625
1756364856.192994,577.63671875,-311.03515625,-769.53125,185.546875
1756364856.2001543,-483.3984375,-745.1171875,-957.03125,-463.8671875
1756364856.2073145,-484.86328125,-1000.0,-1000.0,-43.9453125
1756364856.2144742,535.64453125,-1000.0,-1000.0,660.64453125
1756364856.221634,739.74609375,-627.9296875,-875.0,347.16796875
1756364856.228794,-173.828125,-339.35546875,-757.32421875,-363.28125
1756364856.235954,-600.09765625,-463.8671875,-879.8828125,-257.32421875
1756364856.243114,269.04296875,-366.69921875,-834.9609375,467.28515625
1756364856.2434566,919.43359375,-156.73828125,-692.87109375,557.6171875
1756364856.2437992,188.4765625,-425.78125,-799.31640625,-117.67578125
1756364856.244142,-649.4140625,-946.2890625,-1000.0,-387.6953125
1756364856.244485,-63.4765625,-688.96484375,-991.69921875,245.60546875
1756364856.2448273,911.1328125,-366.2109375,-883.7890625,675.78125
1756364856.24517,454.58984375,-588.37890625,-926.7578125,70.3125
1756364856.2455127,-603.02734375,-893.5546875,-1000.0,-476.07421875
1756364856.245855,-333.49609375,-741.69921875,-1000.0,69.82421875
1756364856.246198,730.95703125,-356.4453125,-891.6015625,682.6171875
1756364856.2465403,685.546875,-549.8046875,-861.328125,290.0390625
1756364856.2468834,-350.09765625,-1000.0,-1000.0,-361.81640625
1756364856.247226,-504.39453125,-833.0078125,-983.3984375,-121.09375
1756364856.2570536,502.44140625,-339.35546875,-800.78125,592.7734375
1756364856.2668812,838.8671875,-193.359375,-670.41015625,452.63671875
1756364856.2767088,-71.2890625,-340.8203125,-766.6015625,-261.23046875
1756364856.2865365,-612.79296875,-578.61328125,-959.9609375,-270.5078125
1756364856.296364,199.21875,-444.82421875,-895.99609375,442.87109375
1756364856.3061914,946.2890625,-657.71484375,-892.08984375,688.4765625
1756364856.316019,238.76953125,-1000.0,-1000.0,-22.94921875
1756364856.325847,-697.265625,-689.453125,-931.640625,-458.49609375
1756364856.3356743,-137.6953125,-389.6484375,-812.98828125,228.02734375
1756364856.345502,880.859375,-243.1640625,-702.63671875,714.35546875
1756364856.3553295,511.71875,-247.0703125,-670.8984375,118.65234375
1756364856.3651571,-533.69140625,-392.578125,-802.734375,-455.56640625
1756364856.3677125,-311.03515625,-661.1328125,-971.6796875,59.5703125
1756364856.370268,749.0234375,-864.2578125,-1000.0,718.26171875
1756364856.3728237,712.40234375,-626.46484375,-929.6875,306.15234375
1756364856.3753788,-334.9609375,-420.8984375,-808.59375,-399.90234375
1756364856.3779345,-520.99609375,-479.00390625,-860.83984375,-145.99609375
1756364856.3804898,480.46875,-704.58984375,-1000.0,592.7734375
1756364856.3830452,894.04296875,-707.51953125,-955.56640625,497.0703125
1756364856.3856008,3.90625,-469.7265625,-847.16796875,-276.85546875
1756364856.3881562,-612.79296875,-765.625,-954.58984375,-310.546875
1756364856.3907115,154.296875,-841.796875,-962.890625,439.453125
1756364856.3932672,923.828125,-406.73828125,-801.7578125,641.6015625
1756364856.3958223,273.92578125,-349.12109375,-750.48828125,-36.62109375
1756364856.3960495,-692.3828125,-572.265625,-910.15625,-455.56640625
1756364856.3962772,-204.1015625,-607.421875,-985.3515625,164.0625
1756364856.3965044,846.19140625,-358.3984375,-802.734375,687.01171875
1756364856.3967316,569.82421875,-362.79296875,-790.0390625,146.484375
1756364856.396959,-457.51953125,-789.0625,-979.00390625,-413.57421875
1756364856.3971865,-371.58203125,-1000.0,-1000.0,11.71875
1756364856.3974135,639.16015625,-857.421875,-1000.0,645.99609375
1756364856.397641,721.6796875,-521.97265625,-891.6015625,321.2890625
1756364856.3978682,-275.87890625,-501.46484375,-865.234375,-394.53125
1756364856.3980954,-583.984375,-608.88671875,-948.2421875,-210.9375
1756364856.3983228,368.65234375,-395.5078125,-828.125,535.64453125
1756364856.39855,921.38671875,-364.2578125,-797.8515625,549.8046875
1756364856.4080572,105.95703125,-868.1640625,-964.84375,-124.0234375
1756364856.4175642,-679.19921875,-949.21875,-1000.0,-340.8203125
1756364856.427071,-7.32421875,-500.0,-900.87890625,316.89453125
1756364856.4365785,906.73828125,-243.1640625,-708.984375,677.734375
1756364856.4460857,382.8125,-316.40625,-755.37109375,23.4375
1756364856.4555924,-597.65625,-742.1875,-956.0546875,-434.08203125
1756364856.465099,-220.21484375,-921.875,-1000.0,146.97265625
1756364856.4746065,824.21875,-854.00390625,-993.1640625,727.5390625
1756364856.4841137,630.37109375,-982.421875,-995.60546875,270.99609375
1756364856.4936206,-452.63671875,-1000.0,-1000.0,-420.41015625
1756364856.5031276,-480.46875,-702.63671875,-948.73046875,-109.375
1756364856.5126348,540.0390625,-212.890625,-721.6796875,604.98046875
1756364856.5129614,765.625,-124.51171875,-625.9765625,369.140625
1756364856.5132878,-160.64453125,-302.734375,-768.06640625,-357.421875
1756364856.5136144,-602.5390625,-430.17578125,-884.765625,-271.97265625
1756364856.5139408,245.1171875,-590.8203125,-970.21484375,450.68359375
1756364856.5142674,869.140625,-511.23046875,-923.828125,536.1328125
1756364856.514594,122.0703125,-605.46875,-947.265625,-160.64453125
1756364856.5149205,-692.87109375,-797.8515625,-1000.0,-428.22265625
1756364856.515247,-43.9453125,-521.484375,-927.24609375,241.69921875
1756364856.5155735,913.57421875,-206.0546875,-711.9140625,645.99609375
1756364856.5159,438.96484375,-214.35546875,-687.98828125,26.85546875
1756364856.5162263,-575.68359375,-569.3359375,-900.390625,-470.21484375
1756364856.5165532,-267.578125,-1000.0,-1000.0,129.8828125
1756364856.5188806,760.25390625,-740.234375,-895.5078125,688.96484375
1756364856.521208,653.3203125,-174.8046875,-645.99609375,193.359375
1756364856.5235355,-358.88671875,-287.109375,-733.88671875,-428.7109375
1756364856.5258632,-460.44921875,-453.125,-902.34375,-105.95703125
1756364856.5281906,538.57421875,-308.10546875,-819.82421875,603.02734375
1756364856.530518,846.19140625,-459.9609375,-883.30078125,439.453125
1756364856.5328455,-77.1484375,-887.20703125,-1000.0,-262.20703125
1756364856.535173,-625.9765625,-829.1015625,-989.74609375,-272.94921875
1756364856.5375004,186.03515625,-462.890625,-922.8515625,421.38671875
1756364856.539828,915.52734375,-222.65625,-727.5390625,605.46875
1756364856.5421555,221.6796875,-226.5625,-697.265625,-100.09765625
1756364856.544483,-668.45703125,-489.2578125,-916.50390625,-437.98828125
1756364856.5518732,-92.28515625,-504.8828125,-950.68359375,231.93359375
1756364856.5592632,912.59765625,-512.20703125,-938.4765625,698.73046875
1756364856.5666535,538.57421875,-812.98828125,-1000.0,136.23046875
1756364856.5740435,-524.90234375,-1000.0,-1000.0,-410.15625
1756364856.5814338,-359.86328125,-812.5,-987.79296875,9.27734375
1756364856.5888238,723.14453125,-662.109375,-1000.0,625.9765625
1756364856.596214,718.26171875,-559.08203125,-939.94140625,241.2109375
1756364856.6036043,-300.78125,-398.4375,-835.44921875,-440.4296875
1756364856.6109943,-502.9296875,-353.02734375,-822.75390625,-173.828125
1756364856.6183846,468.75,-292.96875,-830.56640625,553.7109375
1756364856.6257746,895.01953125,-731.93359375,-956.0546875,501.46484375
1756364856.633165,-7.8125,-712.890625,-931.640625,-251.953125
1756364856.6333883,-640.625,-435.546875,-913.57421875,-359.375
1756364856.6336117,137.20703125,-369.140625,-876.46484375,353.02734375
1756364856.6338348,949.70703125,-171.875,-707.03125,598.14453125
1756364856.6340582,341.30859375,-297.8515625,-782.2265625,-69.82421875
1756364856.6342816,-597.65625,-723.14453125,-975.09765625,-454.58984375
1756364856.634505,-123.53515625,-942.3828125,-1000.0,198.2421875
1756364856.6347284,900.87890625,-1000.0,-999.51171875,754.8828125
1756364856.6349518,555.6640625,-850.5859375,-969.7265625,135.25390625
1756364856.6351752,-519.04296875,-508.7890625,-894.04296875,-504.39453125
1756364856.6353984,-387.6953125,-390.625,-842.28515625,-18.06640625
1756364856.6356218,667.48046875,-241.2109375,-739.74609375,642.08984375
1756364856.6358452,758.7890625,-185.05859375,-677.24609375,306.15234375
1756364856.6407297,-243.65234375,-236.81640625,-700.1953125,-387.6953125
1756364856.645614,-550.29296875,-657.2265625,-912.59765625,-166.50390625
1756364856.6504986,357.91015625,-629.39453125,-911.1328125,544.921875
1756364856.655383,854.98046875,-186.5234375,-676.7578125,503.41796875
1756364856.6602676,47.36328125,-406.73828125,-821.2890625,-204.1015625
1756364856.665152,-672.8515625,-881.8359375,-1000.0,-355.95703125
1756364856.6700363,6.8359375,-858.3984375,-989.74609375,328.125
1756364856.6749208,878.90625,-578.125,-925.29296875,626.953125
1756364856.6798053,340.8203125,-469.23828125,-817.87109375,-42.48046875
1756364856.6846898,-600.09765625,-806.15234375,-926.7578125,-424.31640625
1756364856.6895742,-210.44921875,-989.74609375,-1000.0,157.71484375
1756364856.6944587,806.640625,-420.8984375,-757.32421875,643.06640625
1756364856.6969612,617.1875,-68.359375,-505.37109375,159.1796875
1756364856.6994636,-431.15234375,-249.0234375,-657.71484375,-462.40234375
1756364856.701966,-413.57421875,-400.87890625,-824.21875,-64.453125
1756364856.7044685,611.328125,-193.84765625,-701.171875,612.79296875
1756364856.706971,795.8984375,-371.09375,-757.8125,383.30078125
1756364856.7094734,-173.828125,-893.5546875,-995.60546875,-307.6171875
1756364856.7119758,-588.8671875,-883.30078125,-1000.0,-241.69921875
1756364856.7144785,291.9921875,-602.05078125,-942.87109375,466.30859375
1756364856.7169807,891.6015625,-297.8515625,-751.46484375,536.62109375
1756364856.7194831,136.71875,-360.83984375,-754.39453125,-167.48046875
1756364856.7219856,-656.73828125,-826.66015625,-992.1875,-404.78515625
1756364856.724488,-29.78515625,-634.765625,-938.96484375,260.7421875
1756364856.729487,919.921875,-657.2265625,-917.48046875,704.1015625
1756364856.734486,414.0625,-963.8671875,-988.28125,64.453125
1756364856.739485,-639.16015625,-641.6015625,-916.015625,-521.484375
1756364856.744484,-277.34375,-484.375,-903.80859375,62.01171875
1756364856.749483,783.69140625,-307.12890625,-764.16015625,658.69140625
1756364856.754482,650.390625,-518.5546875,-867.1875,208.49609375
1756364856.759481,-395.99609375,-700.1953125,-991.69921875,-450.68359375
1756364856.76448,-442.3828125,-515.625,-919.43359375,-105.46875
1756364856.769479,569.3359375,-842.28515625,-1000.0,651.3671875
1756364856.774478,785.15625,-703.61328125,-878.41796875,420.41015625
1756364856.7794771,-125.9765625,-304.6875,-718.26171875,-330.56640625
1756364856.784476,-604.98046875,-442.3828125,-841.796875,-291.50390625
1756364856.7870884,211.9140625,-506.8359375,-925.78125,437.98828125
1756364856.789701,896.97265625,-599.609375,-950.1953125,583.984375
1756364856.792313,186.5234375,-426.26953125,-818.359375,-150.87890625
1756364856.7949257,-658.203125,-603.515625,-877.44140625,-428.22265625
1756364856.7975385,-69.82421875,-871.58203125,-1000.0,254.39453125
1756364856.8001506,897.94921875,-715.33203125,-1000.0,662.59765625
1756364856.802763,472.65625,-617.1875,-941.89453125,49.8046875
1756364856.8053756,-582.51953125,-486.328125,-850.5859375,-506.8359375
1756364856.807988,-370.1171875,-452.1484375,-881.34765625,30.2734375
1756364856.8106005,672.8515625,-367.1875,-835.44921875,665.0390625
1756364856.8132129,637.6953125,-290.0390625,-790.0390625,243.65234375
1756364856.8158252,-351.5625,-724.609375,-934.5703125,-398.4375
1756364856.820712,-538.0859375,-947.265625,-1000.0,-136.23046875
1756364856.8255985,426.7578125,-536.62109375,-942.87109375,544.43359375
1756364856.830485,795.8984375,-306.640625,-799.8046875,444.82421875
1756364856.835372,-100.5859375,-500.48828125,-879.8828125,-287.109375
1756364856.8402586,-664.0625,-785.64453125,-1000.0,-342.28515625
1756364856.8451452,99.12109375,-816.89453125,-999.0234375,378.90625
1756364856.850032,882.8125,-679.6875,-994.140625,605.95703125
1756364856.8549185,257.8125,-834.9609375,-1000.0,-38.57421875
1756364856.859805,-704.58984375,-913.0859375,-993.1640625,-439.453125
1756364856.864692,-237.79296875,-506.8359375,-903.3203125,118.1640625
1756364856.8695786,817.3828125,-263.671875,-759.765625,657.2265625
1756364856.8744652,530.76171875,-239.74609375,-717.7734375,111.328125
1756364856.8769672,-521.97265625,-421.38671875,-859.86328125,-481.4453125
1756364856.8794692,-422.36328125,-353.02734375,-837.40234375,-19.53125
1756364856.881971,622.0703125,-422.8515625,-848.6328125,657.71484375
1756364856.8844728,684.08203125,-584.9609375,-917.48046875,313.96484375
1756364856.8869748,-331.54296875,-431.15234375,-851.07421875,-410.15625
1756364856.8894768,-558.10546875,-737.3046875,-974.12109375,-173.828125
1756364856.8919787,375.48828125,-856.4453125,-1000.0,549.8046875
1756364856.8944807,812.01171875,-545.8984375,-906.73828125,466.796875
1756364856.896983,-0.48828125,-419.43359375,-837.890625,-263.18359375
1756364856.8994844,-686.5234375,-543.9453125,-964.35546875,-401.85546875
1756364856.9019864,52.24609375,-800.78125,-1000.0,360.83984375
1756364856.9044883,905.2734375,-946.77734375,-988.76953125,668.9453125
1756364856.9094875,299.31640625,-500.0,-831.0546875,-76.171875
1756364856.914487,-667.48046875,-325.1953125,-796.875,-490.234375
1756364856.919486,-250.48828125,-392.08984375,-877.44140625,130.859375
1756364856.9244854,789.55078125,-258.30078125,-800.29296875,672.36328125
1756364856.9294848,566.89453125,-322.75390625,-841.30859375,163.0859375
1756364856.934484,-476.07421875,-755.37109375,-989.74609375,-463.8671875
1756364856.9394832,-449.70703125,-1000.0,-1000.0,-26.85546875
1756364856.9444826,526.3671875,-730.95703125,-924.31640625,628.90625
1756364856.949482,652.34375,-287.59765625,-762.20703125,316.89453125
1756364856.9544811,-284.66796875,-489.74609375,-848.14453125,-365.72265625
1756364856.9594803,-632.8125,-712.890625,-1000.0,-253.90625
1756364856.9644797,279.78515625,-438.4765625,-886.23046875,463.37890625
1756364856.9693704,893.5546875,-109.86328125,-632.32421875,516.6015625
1756364856.9742613,134.27734375,-393.5546875,-770.99609375,-174.8046875
1756364856.9791522,-657.2265625,-877.44140625,-1000.0,-395.99609375
1756364856.984043,-42.96875,-544.921875,-908.203125,248.046875
1756364856.9889336,870.1171875,-269.04296875,-778.3203125,632.32421875
1756364856.9938245,381.34765625,-687.01171875,-938.4765625,14.16015625
1756364856.9987154,-640.13671875,-870.60546875,-1000.0,-520.01953125
1756364857.003606,-309.5703125,-524.90234375,-904.296875,20.01953125
1756364857.0084968,738.76953125,-198.73046875,-714.35546875,610.83984375
1756364857.0133877,593.26171875,-543.45703125,-832.03125,192.3828125
1756364857.0182786,-467.28515625,-949.70703125,-1000.0,-479.98046875
1756364857.0231693,-554.6875,-641.6015625,-990.234375,-212.40234375
1756364857.0258932,453.61328125,-642.08984375,-1000.0,523.92578125
1756364857.0286171,713.37890625,-644.53125,-947.265625,339.35546875
1756364857.031341,-213.37890625,-428.22265625,-834.47265625,-381.8359375
1756364857.0340648,-683.10546875,-399.90234375,-802.734375,-323.73046875
1756364857.0367887,170.8984375,-357.91015625,-839.84375,414.55078125
1756364857.0395126,889.16015625,-722.65625,-958.984375,589.84375
1756364857.0422366,175.29296875,-948.73046875,-1000.0,-153.3203125
1756364857.0449605,-708.984375,-615.234375,-964.84375,-489.74609375
1756364857.0476842,-131.34765625,-395.5078125,-867.67578125,214.84375
1756364857.050408,846.19140625,-330.078125,-817.87109375,654.296875
1756364857.053132,449.70703125,-378.41796875,-815.4296875,56.15234375
1756364857.055856,-573.2421875,-440.4296875,-877.9296875,-492.1875
1756364857.0607412,-325.68359375,-618.65234375,-1000.0,56.15234375
1756364857.0656264,727.5390625,-748.046875,-962.890625,689.94140625
1756364857.0705116,653.3203125,-419.43359375,-774.4140625,245.60546875
1756364857.0753968,-373.046875,-539.55078125,-870.1171875,-408.69140625
1756364857.080282,-524.90234375,-780.76171875,-1000.0,-119.62890625
1756364857.0851672,447.265625,-743.1640625,-1000.0,583.0078125
1756364857.0900524,821.2890625,-601.5625,-915.0390625,444.82421875
1756364857.0949376,-54.6875,-370.60546875,-805.17578125,-304.6875
1756364857.0998228,-611.81640625,-685.546875,-929.19921875,-298.33984375
1756364857.104708,166.9921875,-1000.0,-1000.0,456.54296875
1756364857.1095932,893.5546875,-604.00390625,-871.09375,602.5390625
1756364857.1144783,256.34765625,-295.41015625,-730.46875,-87.40234375
1756364857.1169834,-640.13671875,-455.56640625,-849.609375,-437.98828125
1756364857.1194882,-143.06640625,-467.7734375,-906.25,202.63671875
1756364857.1219933,858.88671875,-255.37109375,-740.72265625,695.3125
1756364857.124498,529.78515625,-256.8359375,-735.83984375,127.9296875
1756364857.1270032,-479.00390625,-673.828125,-948.73046875,-411.62109375
1756364857.129508,-299.31640625,-929.6875,-1000.0,78.125
1756364857.132013,680.6640625,-723.6328125,-984.375,672.8515625
1756364857.134518,692.3828125,-685.05859375,-996.58203125,317.87109375
1756364857.137023,-291.9921875,-640.13671875,-942.87109375,-392.578125
1756364857.139528,-534.1796875,-508.30078125,-904.296875,-189.94140625
1756364857.1420329,398.4375,-380.859375,-829.58984375,545.8984375
1756364857.144538,874.51171875,-338.8671875,-780.76171875,502.9296875
1756364857.151885,62.98828125,-854.98046875,-965.8203125,-165.52734375
1756364857.159232,-658.69140625,-905.2734375,-1000.0,-332.03125
1756364857.1665792,51.7578125,-457.03125,-861.328125,320.80078125
1756364857.1739264,916.50390625,-283.69140625,-722.16796875,632.8125
1756364857.1812737,330.56640625,-374.51171875,-777.83203125,-25.87890625
1756364857.1886206,-638.671875,-878.90625,-1000.0,-437.5
1756364857.1959677,-232.421875,-733.3984375,-930.6640625,136.23046875
1756364857.2033148,822.75390625,-548.828125,-844.7265625,688.4765625
1756364857.210662,571.77734375,-851.5625,-949.70703125,177.734375
1756364857.218009,-500.9765625,-790.52734375,-967.28515625,-491.2109375
1756364857.225356,-434.08203125,-635.25390625,-921.875,-74.21875
1756364857.2327032,589.84375,-210.9375,-662.59765625,598.14453125
1756364857.23302,758.30078125,-144.04296875,-595.21484375,320.80078125
1756364857.2333367,-193.84765625,-334.47265625,-733.88671875,-380.859375
1756364857.2336535,-574.70703125,-404.78515625,-831.54296875,-248.046875
1756364857.2339702,287.109375,-715.33203125,-959.47265625,485.83984375
1756364857.234287,817.87109375,-642.08984375,-881.8359375,504.39453125
1756364857.234604,40.0390625,-577.1484375,-876.953125,-216.30859375
1756364857.2349205,-701.171875,-944.82421875,-1000.0,-429.19921875
1756364857.2352374,-33.69140625,-692.3828125,-962.40234375,254.8828125
1756364857.235554,904.296875,-365.234375,-821.2890625,648.92578125
1756364857.2358708,407.71484375,-336.9140625,-770.5078125,21.97265625
1756364857.2361877,-609.375,-557.12890625,-909.66796875,-470.21484375
1756364857.2365043,-277.34375,-934.08203125,-1000.0,114.74609375
1756364857.2414532,746.58203125,-863.76953125,-1000.0,662.59765625
1756364857.246402,577.63671875,-496.09375,-900.87890625,158.203125
1756364857.2513509,-440.91796875,-435.546875,-832.51953125,-471.6796875
1756364857.2562995,-458.0078125,-413.0859375,-837.40234375,-106.93359375
1756364857.2612486,545.41015625,-321.77734375,-788.57421875,604.4921875
1756364857.2661972,792.48046875,-539.55078125,-923.33984375,404.296875
1756364857.271146,-146.484375,-822.75390625,-1000.0,-323.2421875
1756364857.276095,-621.09375,-1000.0,-1000.0,-244.62890625
1756364857.2810438,192.3828125,-758.30078125,-942.87109375,429.6875
1756364857.2859926,863.28125,-243.65234375,-724.609375,519.53125
1756364857.2909417,161.62109375,-287.109375,-741.69921875,-149.90234375
1756364857.2958903,-683.10546875,-520.01953125,-944.3359375,-441.89453125
1756364857.300782,-116.69921875,-450.1953125,-918.45703125,205.56640625
1756364857.3056734,844.7265625,-205.56640625,-716.796875,644.04296875
1756364857.310565,428.7109375,-505.37109375,-842.28515625,62.01171875
1756364857.3154564,-623.046875,-846.19140625,-1000.0,-488.76953125
1756364857.320348,-392.578125,-614.74609375,-960.9375,-7.8125
1756364857.3252397,666.9921875,-650.390625,-998.046875,618.65234375
1756364857.330131,605.95703125,-662.109375,-943.359375,192.3828125
1756364857.3350227,-423.828125,-476.5625,-847.16796875,-490.234375
1756364857.339914,-580.56640625,-518.06640625,-920.41015625,-195.80078125
1756364857.3448057,370.1171875,-425.78125,-891.6015625,514.16015625
1756364857.349697,729.98046875,-785.15625,-959.9609375,441.89453125
1756364857.3545887,-182.12890625,-902.34375,-982.91015625,-317.87109375
1756364857.3570817,-764.16015625,-471.19140625,-840.8203125,-417.48046875
1756364857.3595746,61.03515625,-222.16796875,-690.4296875,331.54296875
1756364857.3620677,828.125,-86.9140625,-582.51953125,535.15625
1756364857.3645604,166.50390625,-195.3125,-662.59765625,-160.15625
1756364857.3670533,-732.91015625,-487.3046875,-901.85546875,-515.625
1756364857.3695464,-205.56640625,-865.234375,-1000.0,165.0390625
1756364857.3720393,789.0625,-890.625,-990.234375,643.06640625
1756364857.3745322,426.7578125,-532.2265625,-878.41796875,34.66796875
1756364857.3770251,-613.76953125,-400.87890625,-813.4765625,-533.69140625
1756364857.379518,-422.36328125,-411.1328125,-872.55859375,-55.17578125
1756364857.382011,663.57421875,-314.453125,-816.89453125,604.00390625
1756364857.3845038,707.03125,-305.17578125,-779.296875,250.48828125
1756364857.392059,-291.50390625,-422.36328125,-897.94921875,-441.40625
1756364857.3996143,-499.51171875,-800.78125,-993.1640625,-173.828125
1756364857.4071696,406.25,-966.796875,-1000.0,528.3203125
1756364857.4147248,820.3125,-502.9296875,-884.27734375,418.45703125
1756364857.42228,23.4375,-285.15625,-797.8515625,-260.25390625
1756364857.429835,-613.28125,-656.73828125,-945.80078125,-334.9609375
1756364857.4373906,101.5625,-803.22265625,-1000.0,367.1875
1756364857.4449458,917.48046875,-303.22265625,-818.359375,617.67578125
1756364857.452501,341.30859375,-185.546875,-729.00390625,-41.50390625
1756364857.4600563,-591.796875,-810.546875,-967.7734375,-395.5078125
1756364857.4676116,-177.734375,-872.0703125,-995.1171875,184.08203125
1756364857.4751668,829.58984375,-282.2265625,-791.015625,655.76171875
1756364857.4777274,582.51953125,-119.140625,-659.66796875,173.828125
1756364857.4802878,-457.51953125,-331.54296875,-814.94140625,-421.875
1756364857.4828484,-378.41796875,-482.91015625,-969.23828125,-4.8828125
1756364857.485409,629.8828125,-256.34765625,-832.51953125,642.578125
1756364857.4879694,737.3046875,-324.70703125,-806.640625,372.55859375
1756364857.49053,-230.46875,-878.90625,-994.140625,-298.828125
1756364857.4930906,-599.12109375,-830.56640625,-1000.0,-198.73046875
1756364857.495651,271.97265625,-376.953125,-851.07421875,499.0234375
1756364857.4982116,864.2578125,-155.2734375,-671.875,558.10546875
1756364857.5007722,49.8046875,-298.828125,-755.37109375,-168.45703125
1756364857.5033326,-585.44921875,-474.12109375,-910.64453125,-294.43359375
1756364857.5058932,152.83203125,-436.5234375,-925.78125,430.17578125
1756364857.5156224,877.9296875,-766.6015625,-992.67578125,690.4296875
1756364857.5253518,358.88671875,-788.57421875,-938.4765625,23.92578125
1756364857.535081,-633.30078125,-438.4765625,-850.09765625,-486.328125
1756364857.5448103,-286.1328125,-466.30859375,-935.546875,104.98046875
1756364857.5545394,754.8828125,-337.890625,-834.47265625,681.640625
1756364857.5642686,595.703125,-457.51953125,-844.7265625,218.75
1756364857.573998,-440.4296875,-723.14453125,-1000.0,-420.8984375
1756364857.5837271,-458.984375,-566.89453125,-982.91015625,-80.56640625
1756364857.5934565,565.91796875,-815.4296875,-1000.0,654.296875
1756364857.6031857,774.90234375,-814.453125,-920.8984375,397.4609375
1756364857.612915,-144.53125,-367.67578125,-778.80859375,-371.58203125
1756364857.6226442,-577.63671875,-477.5390625,-919.921875,-273.4375
1756364857.6228533,274.90234375,-448.2421875,-940.4296875,456.54296875
1756364857.6230624,835.44921875,-297.8515625,-821.2890625,514.16015625
1756364857.6232717,77.63671875,-397.94921875,-854.00390625,-197.75390625
1756364857.6234806,-621.58203125,-780.2734375,-981.93359375,-383.7890625
1756364857.6236897,-45.41015625,-1000.0,-1000.0,334.47265625
1756364857.6238987,870.60546875,-962.40234375,-999.0234375,690.91796875
1756364857.6241078,425.78125,-744.140625,-978.515625,-1.953125
1756364857.624317,-579.1015625,-518.06640625,-905.2734375,-507.32421875
1756364857.624526,-301.26953125,-376.46484375,-851.5625,45.41015625
1756364857.624735,731.93359375,-227.5390625,-750.48828125,658.69140625
1756364857.6249442,660.15625,-47.8515625,-601.5625,239.2578125
1756364857.6251533,-336.9140625,-529.296875,-802.24609375,-394.53125
1756364857.6254935,-482.421875,-782.2265625,-972.16796875,-122.55859375
1756364857.6258335,486.81640625,-218.75,-722.16796875,553.22265625
1756364857.6261735,845.703125,-102.05078125,-614.74609375,427.24609375
1756364857.6265135,-42.96875,-263.671875,-722.65625,-280.76171875
1756364857.626854,-611.328125,-462.40234375,-893.5546875,-305.6640625
1756364857.627194,159.1796875,-681.640625,-995.60546875,404.296875
1756364857.6275342,898.92578125,-748.046875,-1000.0,596.6796875
1756364857.6278744,231.4453125,-796.875,-990.72265625,-98.6328125
1756364857.6282144,-672.36328125,-631.34765625,-923.828125,-467.7734375
1756364857.6285546,-130.859375,-423.828125,-892.578125,181.640625
1756364857.6288946,859.375,-295.41015625,-792.48046875,641.6015625
1756364857.6292348,508.30078125,-254.39453125,-727.5390625,72.75390625
1756364857.633839,-518.06640625,-442.3828125,-852.05078125,-460.44921875
1756364857.6384428,-338.37890625,-383.7890625,-872.55859375,3.90625
1756364857.6430466,705.078125,-474.12109375,-908.203125,656.73828125
1756364857.6476505,710.44921875,-798.33984375,-1000.0,295.41015625
1756364857.6522546,-299.8046875,-629.8828125,-966.30859375,-421.38671875
1756364857.6568584,-507.32421875,-763.671875,-1000.0,-157.71484375
1756364857.6614623,413.57421875,-689.94140625,-965.8203125,540.0390625
1756364857.6660664,839.84375,-211.9140625,-765.13671875,449.21875
1756364857.6706705,14.6484375,-461.42578125,-858.88671875,-244.62890625
1756364857.675274,-646.484375,-723.6328125,-1000.0,-374.51171875
1756364857.6798782,106.93359375,-743.65234375,-995.60546875,339.84375
1756364857.684482,948.73046875,-980.46875,-990.72265625,663.57421875
1756364857.68935,318.359375,-1000.0,-1000.0,-34.1796875
1756364857.6942182,-659.66796875,-690.4296875,-918.9453125,-497.55859375
1756364857.6990862,-208.0078125,-219.7265625,-744.62890625,132.8125
1756364857.7039542,817.87109375,-79.58984375,-654.296875,666.50390625
1756364857.7088225,530.76171875,-15.13671875,-596.6796875,119.62890625
1756364857.7136903,-505.859375,-460.9375,-855.46875,-449.21875
1756364857.718558,-432.6171875,-827.63671875,-1000.0,-29.296875
1756364857.723426,574.21875,-369.140625,-760.25390625,589.35546875
1756364857.728294,706.0546875,-64.94140625,-617.1875,314.453125
1756364857.7331622,-235.3515625,-208.984375,-693.359375,-373.046875
1756364857.7380302,-570.3125,-324.21875,-823.73046875,-234.86328125
1756364857.7428982,299.8046875,-476.07421875,-941.40625,496.58203125
1756364857.7432046,828.125,-384.765625,-844.7265625,511.71875
1756364857.743511,51.7578125,-332.51953125,-789.0625,-204.58984375
1756364857.743817,-667.48046875,-919.921875,-1000.0,-339.35546875
1756364857.7441237,-0.48828125,-785.15625,-951.66015625,314.94140625
1756364857.74443,843.26171875,-235.83984375,-784.66796875,576.66015625
1756364857.7447364,315.91796875,-558.10546875,-916.015625,-43.9453125
1756364857.7450428,-631.34765625,-760.25390625,-1000.0,-486.328125
1756364857.7453492,-293.9453125,-453.125,-917.48046875,63.4765625
1756364857.7456555,726.5625,-222.16796875,-809.08203125,620.1171875
1756364857.745962,563.4765625,-534.66796875,-888.18359375,177.24609375
1756364857.7462685,-465.8203125,-943.359375,-1000.0,-440.91796875
1756364857.7465746,-498.046875,-650.87890625,-974.12109375,-125.0
1756364857.7514124,504.8828125,-240.234375,-791.015625,549.8046875
1756364857.75625,716.30859375,-66.89453125,-623.53515625,327.63671875
1756364857.761088,-219.7265625,-364.2578125,-792.96875,-351.07421875
1756364857.7659256,-653.3203125,-628.41796875,-996.09375,-273.92578125
1756364857.7707634,193.359375,-314.453125,-848.14453125,428.22265625
1756364857.7756014,843.75,-626.953125,-898.4375,583.0078125
1756364857.7804391,106.93359375,-970.703125,-997.55859375,-133.7890625
1756364857.785277,-694.82421875,-568.359375,-899.4140625,-472.16796875
1756364857.7901146,-52.734375,-348.6328125,-842.7734375,199.70703125
1756364857.7949524,881.34765625,-162.109375,-686.5234375,604.4921875
1756364857.79979,430.17578125,-132.8125,-618.65234375,10.7421875
1756364857.804628,-575.68359375,-333.49609375,-792.96875,-503.41796875
1756364857.8096173,-304.19921875,-566.40625,-973.14453125,29.296875
1756364857.8146064,707.51953125,-611.328125,-943.84765625,621.09375
1756364857.8195958,604.98046875,-356.93359375,-791.9921875,173.828125
1756364857.824585,-401.3671875,-329.58984375,-765.625,-449.70703125
1756364857.8295743,-537.109375,-433.59375,-840.8203125,-131.34765625
1756364857.8345635,409.1796875,-567.87109375,-957.03125,567.87109375
1756364857.8395529,729.98046875,-594.7265625,-907.71484375,420.8984375
1756364857.8445425,-146.97265625,-471.19140625,-800.78125,-313.96484375
1756364857.8495314,-672.8515625,-658.203125,-894.04296875,-309.5703125
1756364857.8545208,88.8671875,-994.62890625,-1000.0,431.15234375
1756364857.85951,782.71484375,-452.1484375,-732.421875,542.48046875
1756364857.864499,149.90234375,-98.14453125,-558.10546875,-150.390625
1756364857.8670013,-696.2890625,-270.5078125,-686.5234375,-456.54296875
1756364857.8695033,-151.85546875,-261.23046875,-730.95703125,193.84765625
1756364857.8720057,837.890625,-173.33984375,-666.9921875,647.4609375
1756364857.8745074,496.09375,-98.14453125,-587.40234375,88.8671875
1756364857.8770094,-525.390625,-551.7578125,-804.6875,-456.0546875
1756364857.8795114,-350.09765625,-949.70703125,-1000.0,9.27734375
1756364857.882013,663.0859375,-549.31640625,-910.64453125,612.79296875
1756364857.8845153,668.9453125,-126.953125,-625.9765625,248.53515625
1756364857.8870173,-312.5,-476.5625,-816.40625,-396.484375
1756364857.8895197,-538.0859375,-646.484375,-974.609375,-181.640625
1756364857.8920214,386.71875,-196.77734375,-706.0546875,512.6953125
1756364857.8945234,817.3828125,-136.23046875,-656.25,469.7265625
1756364857.9045212,-5.859375,-775.390625,-928.22265625,-172.36328125
1756364857.914519,-666.50390625,-856.93359375,-972.65625,-314.453125
1756364857.9245172,64.94140625,-375.0,-834.47265625,309.5703125
1756364857.934515,882.32421875,-159.66796875,-667.96875,582.03125
1756364857.9445128,285.15625,-207.03125,-687.98828125,-53.7109375
1756364857.9545107,-620.60546875,-716.796875,-969.7265625,-423.828125
1756364857.9645083,-184.5703125,-728.515625,-998.046875,153.80859375
1756364857.9745064,824.21875,-619.140625,-952.1484375,680.6640625
1756364857.9845042,557.6171875,-832.03125,-948.73046875,157.2265625
1756364857.9945023,-498.53515625,-523.92578125,-843.26171875,-486.328125
1756364858.0045002,-369.62890625,-263.18359375,-739.2578125,-25.390625
1756364858.014498,652.83203125,-369.140625,-805.17578125,656.73828125
1756364858.0148935,711.9140625,-338.37890625,-776.3671875,333.49609375
1756364858.0152893,-228.515625,-172.8515625,-632.8125,-375.9765625
1756364858.0156848,-526.85546875,-316.40625,-808.59375,-197.75390625
1756364858.0160806,350.09765625,-704.58984375,-985.3515625,532.71484375
1756364858.0164762,842.28515625,-584.9609375,-839.84375,509.27734375
1756364858.016872,45.8984375,-525.390625,-871.58203125,-187.5
1756364858.0172677,-663.0859375,-858.3984375,-1000.0,-344.23828125
1756364858.017663,0.9765625,-624.0234375,-960.44921875,318.84765625
1756364858.0180588,854.4921875,-283.69140625,-768.06640625,634.765625
1756364858.0184543,349.609375,-231.93359375,-675.29296875,-8.7890625
1756364858.01885,-602.5390625,-483.3984375,-856.4453125,-457.03125
1756364858.0192456,-256.8359375,-729.4921875,-973.6328125,126.46484375
1756364858.021351,730.46875,-411.1328125,-784.1796875,641.11328125
1756364858.0234563,549.8046875,-283.69140625,-720.703125,149.4140625
1756364858.0255618,-467.7734375,-665.0390625,-942.87109375,-458.0078125
1756364858.027667,-481.93359375,-630.859375,-976.07421875,-106.93359375
1756364858.0297723,514.16015625,-355.95703125,-810.546875,566.40625
1756364858.031878,723.6328125,-465.8203125,-841.796875,344.7265625
1756364858.0339832,-171.875,-848.14453125,-985.3515625,-318.359375
1756364858.0360887,-594.23828125,-865.234375,-998.53515625,-254.8828125
1756364858.038194,209.9609375,-482.421875,-922.36328125,410.15625
1756364858.0402994,795.41015625,-288.0859375,-781.25,489.74609375
1756364858.042405,41.9921875,-293.45703125,-739.74609375,-214.84375
1756364858.04451,-736.81640625,-480.46875,-893.06640625,-444.82421875
1756364858.049356,-102.5390625,-493.65234375,-927.24609375,232.91015625
1756364858.054202,847.65625,-317.3828125,-819.3359375,612.79296875
1756364858.059048,432.12890625,-634.27734375,-901.85546875,38.0859375
1756364858.063894,-564.453125,-1000.0,-1000.0,-438.4765625
1756364858.06874,-338.37890625,-874.51171875,-979.00390625,30.76171875
1756364858.073586,662.109375,-619.140625,-956.0546875,593.26171875
1756364858.0784318,585.9375,-630.859375,-965.8203125,187.98828125
1756364858.0832777,-410.64453125,-640.13671875,-970.703125,-468.26171875
1756364858.0881238,-496.58203125,-415.52734375,-849.12109375,-163.57421875
1756364858.0929697,472.16796875,-241.69921875,-759.27734375,527.34375
1756364858.0978158,775.390625,-704.1015625,-921.875,405.2734375
1756364858.1026616,-139.6484375,-844.7265625,-945.3125,-310.546875
1756364858.1053166,-679.19921875,-395.5078125,-816.89453125,-356.93359375
1756364858.107972,124.0234375,-291.9921875,-814.94140625,372.0703125
1756364858.1106272,818.359375,-167.96875,-698.2421875,544.921875
1756364858.1132822,150.87890625,-154.296875,-633.7890625,-144.04296875
1756364858.1159372,-705.078125,-354.98046875,-830.56640625,-474.12109375
1756364858.1185925,-162.59765625,-788.0859375,-1000.0,204.58984375
1756364858.1212478,787.59765625,-913.57421875,-984.375,648.92578125
1756364858.1239028,408.203125,-489.2578125,-841.30859375,24.4140625
1756364858.1265578,-582.03125,-526.3671875,-899.4140625,-484.86328125
1756364858.129213,-401.85546875,-494.140625,-912.109375,0.9765625
1756364858.1318684,620.1171875,-208.984375,-749.0234375,613.76953125
1756364858.1345234,625.48828125,-119.62890625,-638.18359375,247.55859375
1756364858.1394668,-363.76953125,-136.23046875,-658.69140625,-421.38671875
1756364858.14441,-540.52734375,-691.40625,-926.7578125,-142.08984375
1756364858.1493535,367.67578125,-746.09375,-914.55078125,532.71484375
1756364858.154297,746.09375,-128.41796875,-630.37109375,365.234375
1756364858.1592405,-54.6875,-289.55078125,-750.48828125,-251.953125
1756364858.164184,-652.34375,-765.13671875,-996.09375,-262.20703125
1756364858.1691272,48.828125,-739.74609375,-1000.0,328.61328125
1756364858.1740706,825.1953125,-359.86328125,-837.40234375,545.8984375
1756364858.1790142,248.53515625,-296.38671875,-777.83203125,-106.4453125
1756364858.1839576,-643.5546875,-796.38671875,-962.40234375,-459.47265625
1756364858.188901,-197.265625,-787.59765625,-958.0078125,133.30078125
1756364858.1938443,790.0390625,-497.55859375,-889.16015625,609.375
1756364858.1989613,500.48828125,-337.40234375,-732.421875,80.078125
1756364858.2040782,-511.71875,-285.15625,-717.28515625,-488.76953125
1756364858.2091951,-387.20703125,-423.33984375,-872.0703125,-33.69140625
1756364858.214312,608.3984375,-268.5546875,-807.6171875,609.86328125
1756364858.219429,685.05859375,-393.5546875,-825.68359375,313.4765625
1756364858.224546,-278.80859375,-966.30859375,-1000.0,-354.98046875
1756364858.229663,-599.609375,-828.125,-982.421875,-240.72265625
1756364858.2347798,307.6171875,-324.70703125,-846.6796875,449.70703125
1756364858.2398968,837.890625,-203.125,-736.81640625,464.35546875
1756364858.2450137,47.8515625,-242.67578125,-719.7265625,-233.3984375
1756364858.250131,-659.66796875,-434.5703125,-887.20703125,-390.13671875
1756364858.2552476,28.80859375,-377.9296875,-925.29296875,291.50390625
1756364858.2577994,847.65625,-578.125,-906.73828125,614.2578125
1756364858.2603514,304.6875,-932.6171875,-1000.0,-22.4609375
1756364858.2629032,-600.09765625,-736.81640625,-1000.0,-462.890625
1756364858.2654552,-229.98046875,-415.52734375,-891.11328125,113.28125
1756364858.268007,766.6015625,-205.56640625,-736.328125,644.53125
1756364858.2705588,564.94140625,-469.23828125,-857.421875,177.734375
1756364858.2731109,-433.10546875,-660.15625,-997.55859375,-436.5234375
1756364858.275663,-393.06640625,-444.82421875,-918.45703125,-72.265625
1756364858.2782147,593.26171875,-638.18359375,-943.359375,610.3515625
1756364858.2807665,732.421875,-488.76953125,-805.17578125,321.77734375
1756364858.2833183,-174.8046875,-205.56640625,-701.66015625,-385.7421875
1756364858.2858703,-568.359375,-363.28125,-838.37890625,-261.71875
1756364858.288257,232.421875,-294.921875,-817.3828125,446.2890625
1756364858.2906432,819.3359375,-166.50390625,-697.75390625,515.13671875
1756364858.2930298,84.9609375,-148.4375,-670.8984375,-186.03515625
1756364858.2954164,-681.640625,-447.265625,-850.09765625,-392.08984375
1756364858.297803,-78.61328125,-965.33203125,-1000.0,301.7578125
1756364858.3001895,797.36328125,-702.63671875,-902.83203125,624.51171875
1756364858.3025758,358.88671875,-430.17578125,-820.80078125,0.0
1756364858.3049624,-605.46875,-570.80078125,-929.19921875,-482.91015625
1756364858.307349,-317.3828125,-379.39453125,-864.2578125,44.43359375
1756364858.3097353,701.171875,-215.33203125,-750.0,622.0703125
1756364858.312122,593.26171875,-118.65234375,-690.4296875,165.0390625
1756364858.3145084,-398.92578125,-575.1953125,-871.09375,-419.921875
1756364858.3195128,-501.953125,-995.1171875,-1000.0,-93.75
1756364858.3245173,420.41015625,-493.65234375,-869.140625,498.53515625
1756364858.3295217,714.35546875,-123.046875,-672.8515625,346.19140625
1756364858.334526,-163.0859375,-150.390625,-655.2734375,-323.73046875
1756364858.3395305,-658.69140625,-338.37890625,-839.84375,-309.08203125
1756364858.3445349,139.6484375,-631.8359375,-1000.0,398.92578125
1756364858.349539,807.6171875,-573.2421875,-973.6328125,529.78515625
1756364858.3545434,144.04296875,-754.39453125,-970.21484375,-116.69921875
1756364858.359548,-695.80078125,-857.421875,-980.95703125,-431.15234375
1756364858.3645525,-157.2265625,-296.875,-790.0390625,174.8046875
1756364858.369557,795.8984375,16.6015625,-562.5,630.859375
1756364858.374561,410.64453125,-63.96484375,-607.91015625,52.734375
1756364858.377067,-601.07421875,-250.48828125,-738.76953125,-480.46875
1756364858.3795738,-387.6953125,-236.328125,-764.16015625,4.39453125
1756364858.38208,652.83203125,-319.82421875,-815.91796875,633.30078125
1756364858.3845863,627.44140625,-491.69921875,-883.30078125,249.0234375
1756364858.3870928,-365.234375,-370.1171875,-833.0078125,-431.640625
1756364858.389599,-529.296875,-590.33203125,-935.05859375,-149.90234375
1756364858.392105,388.18359375,-720.21484375,-1000.0,531.25
1756364858.3946118,756.8359375,-399.90234375,-872.55859375,406.25
1756364858.397118,-78.125,-267.578125,-738.76953125,-284.66796875
1756364858.3996243,-662.109375,-331.54296875,-864.2578125,-357.421875
1756364858.4021308,104.4921875,-632.8125,-964.35546875,384.765625
1756364858.404637,855.95703125,-958.984375,-993.65234375,625.0
1756364858.4096842,207.03125,-530.2734375,-852.05078125,-111.81640625
1756364858.414731,-686.03515625,-291.50390625,-791.9921875,-463.37890625
1756364858.419778,-213.37890625,-326.66015625,-836.9140625,165.0390625
1756364858.4248252,770.01953125,-162.59765625,-709.9609375,628.90625
1756364858.429872,457.51953125,-186.03515625,-710.9375,92.28515625
1756364858.434919,-545.41015625,-626.46484375,-951.171875,-474.609375
1756364858.4399662,-405.76171875,-993.65234375,-1000.0,-19.53125
1756364858.445013,573.2421875,-714.35546875,-918.45703125,589.84375
1756364858.45006,636.23046875,-241.69921875,-752.9296875,240.72265625
1756364858.4551072,-312.01171875,-272.4609375,-766.11328125,-412.59765625
1756364858.460154,-596.6796875,-316.40625,-816.40625,-237.3046875
1756364858.4652011,307.12890625,-275.87890625,-817.3828125,463.37890625
1756364858.4700344,810.05859375,-67.87109375,-654.296875,447.75390625
1756364858.4748676,23.4375,-290.0390625,-723.14453125,-219.23828125
1756364858.479701,-673.33984375,-785.64453125,-1000.0,-369.62890625
1756364858.4845345,-18.5546875,-437.01171875,-889.6484375,268.06640625
1756364858.4893675,825.68359375,-76.66015625,-661.62109375,576.171875
1756364858.4942007,295.41015625,-407.71484375,-832.03125,-39.55078125
1756364858.499034,-677.24609375,-793.9453125,-1000.0,-478.02734375
1756364858.5038671,-305.6640625,-572.265625,-950.1953125,76.171875
1756364858.5087004,695.80078125,-120.1171875,-753.41796875,597.65625
1756364858.5135338,475.5859375,-419.43359375,-797.8515625,144.53125
1756364858.518367,-553.7109375,-977.05078125,-1000.0,-446.77734375
1756364858.5232005,-531.25,-631.34765625,-979.4921875,-115.72265625
1756364858.528254,491.69921875,-310.546875,-880.37109375,544.43359375
1756364858.5333078,665.0390625,-254.8828125,-797.36328125,286.62109375
1756364858.5383615,-261.23046875,-306.640625,-816.89453125,-394.04296875
1756364858.5434153,-642.08984375,-415.0390625,-934.5703125,-281.25
1756364858.548469,198.2421875,-442.87109375,-979.00390625,422.8515625
1756364858.5535226,781.25,-793.9453125,-1000.0,513.671875
1756364858.5585763,26.85546875,-890.13671875,-985.3515625,-217.28515625
1756364858.56363,-745.1171875,-479.00390625,-926.7578125,-480.95703125
1756364858.568684,-117.1875,-321.2890625,-881.34765625,210.44921875
1756364858.5737376,775.390625,-167.96875,-739.2578125,576.171875
1756364858.5787914,302.24609375,-106.4453125,-649.90234375,-25.390625
1756364858.5838451,-703.125,-282.2265625,-807.12890625,-505.37109375
1756364858.586402,-423.33984375,-519.04296875,-991.2109375,51.7578125
1756364858.5889587,578.61328125,-671.38671875,-963.8671875,610.3515625
1756364858.5915155,457.51953125,-354.98046875,-754.39453125,126.953125
1756364858.5940726,-512.6953125,-275.390625,-765.625,-481.4453125
1756364858.5966294,-557.6171875,-426.26953125,-895.01953125,-148.4375
1756364858.5991862,418.9453125,-555.6640625,-964.84375,525.390625
1756364858.601743,694.82421875,-648.92578125,-992.67578125,339.35546875
1756364858.6042998,-203.125,-657.2265625,-970.703125,-367.67578125
1756364858.6068568,-668.45703125,-930.6640625,-1000.0,-314.453125
1756364858.6094136,122.0703125,-882.32421875,-997.0703125,375.9765625
1756364858.6119704,778.3203125,-432.6171875,-854.00390625,470.703125
1756364858.6145272,114.74609375,-457.51953125,-891.11328125,-188.4765625
1756364858.6170266,-740.234375,-499.51171875,-934.08203125,-496.09375
1756364858.619526,-195.3125,-383.7890625,-882.32421875,142.08984375
1756364858.6220255,736.328125,-307.6171875,-820.3125,579.58984375
1756364858.624525,316.89453125,-203.61328125,-723.14453125,0.0
1756364858.6270244,-674.8046875,-601.5625,-871.09375,-489.2578125
1756364858.6295238,-448.2421875,-1000.0,-1000.0,37.109375
1756364858.632023,542.96875,-741.69921875,-936.03515625,556.640625
1756364858.634523,517.08984375,-188.96484375,-702.1484375,131.34765625
1756364858.6370225,-430.17578125,-213.37890625,-713.37890625,-491.69921875
1756364858.6395216,-567.3828125,-377.9296875,-888.18359375,-215.8203125
1756364858.6420212,368.1640625,-508.7890625,-979.98046875,484.86328125
1756364858.6445203,727.05078125,-382.32421875,-867.67578125,375.0
1756364858.6520772,-97.16796875,-718.75,-906.73828125,-270.01953125
1756364858.6596336,-665.0390625,-869.62890625,-990.72265625,-345.21484375
1756364858.6671903,73.2421875,-310.05859375,-833.49609375,309.5703125
1756364858.674747,831.0546875,-62.01171875,-655.76171875,559.5703125
1756364858.6823034,221.19140625,-63.4765625,-629.39453125,-115.234375
1756364858.68986,-665.0390625,-552.734375,-887.6953125,-480.95703125
1756364858.6974168,-208.984375,-620.60546875,-994.140625,113.76953125
1756364858.7049732,764.16015625,-511.71875,-946.2890625,605.95703125
1756364858.71253,443.84765625,-828.61328125,-975.09765625,76.66015625
1756364858.7200866,-576.171875,-613.28125,-957.03125,-527.34375
1756364858.727643,-403.80859375,-350.09765625,-878.90625,-62.5
1756364858.7351997,618.65234375,-142.578125,-708.49609375,584.47265625
1756364858.735546,680.17578125,-81.0546875,-672.8515625,254.39453125
1756364858.7358923,-275.87890625,-430.17578125,-871.09375,-395.01953125
1756364858.7362387,-540.52734375,-502.44140625,-963.37890625,-206.0546875
1756364858.7365851,355.46875,-668.45703125,-958.984375,513.18359375
1756364858.7369316,789.0625,-646.484375,-856.4453125,476.5625
1756364858.737278,-31.25,-475.5859375,-854.98046875,-258.30078125
1756364858.7376242,-683.59375,-668.9453125,-1000.0,-395.5078125
1756364858.7379706,23.92578125,-312.5,-840.8203125,282.71484375
1756364858.738317,844.7265625,-96.19140625,-658.203125,577.1484375
1756364858.7386632,281.73828125,-64.453125,-600.5859375,-62.5
1756364858.7390096,-650.87890625,-278.80859375,-759.27734375,-445.80078125
1756364858.739356,-242.67578125,-743.1640625,-999.0234375,141.11328125
1756364858.74653,747.55859375,-446.2890625,-821.2890625,603.02734375
1756364858.753704,518.06640625,-35.64453125,-581.54296875,91.796875
1756364858.760878,-487.3046875,-239.2578125,-714.84375,-488.76953125
1756364858.7680523,-439.94140625,-368.1640625,-854.4921875,-77.1484375
1756364858.7752264,551.7578125,-472.65625,-909.1796875,593.26171875
1756364858.7824004,707.03125,-607.421875,-983.88671875,322.265625
1756364858.7895744,-211.42578125,-774.4140625,-991.2109375,-353.02734375
1756364858.7967484,-570.3125,-999.0234375,-993.65234375,-206.54296875
1756364858.803923,248.53515625,-995.1171875,-1000.0,435.546875
1756364858.811097,780.2734375,-364.74609375,-711.9140625,402.83203125
1756364858.8182707,38.0859375,48.828125,-479.98046875,-258.30078125
1756364858.8254447,-696.77734375,-166.015625,-662.109375,-430.6640625
1756364858.8277545,-63.4765625,-185.05859375,-729.98046875,246.09375
1756364858.8300643,816.89453125,-41.50390625,-620.60546875,610.3515625
1756364858.8323743,333.49609375,-312.01171875,-777.83203125,-7.8125
1756364858.834684,-646.484375,-445.80078125,-913.0859375,-506.34765625
1756364858.8369942,-315.4296875,-254.39453125,-815.91796875,46.38671875
1756364858.839304,690.4296875,-420.8984375,-922.8515625,626.953125
1756364858.8416138,520.5078125,-486.81640625,-916.015625,173.828125
1756364858.8439238,-507.32421875,-505.37109375,-896.97265625,-448.73046875
1756364858.8462336,-558.59375,-365.234375,-851.07421875,-131.8359375
1756364858.8485434,437.5,-191.89453125,-748.53515625,535.15625
1756364858.8508534,720.21484375,-381.8359375,-847.65625,354.98046875
1756364858.8531632,-167.96875,-305.17578125,-791.9921875,-355.95703125
1756364858.8557756,-646.97265625,-171.875,-716.796875,-322.75390625
1756364858.8583882,139.16015625,-91.30859375,-678.22265625,381.34765625
1756364858.8610003,795.8984375,24.4140625,-580.078125,515.13671875
1756364858.863613,122.0703125,-75.68359375,-625.0,-169.43359375
1756364858.8662255,-691.89453125,-259.765625,-802.24609375,-419.921875
1756364858.8688378,-125.48828125,-604.00390625,-966.30859375,250.48828125
1756364858.8714502,805.17578125,-1000.0,-1000.0,650.390625
1756364858.8740628,355.95703125,-894.04296875,-971.19140625,14.16015625
1756364858.8766751,-656.73828125,-409.1796875,-829.58984375,-563.4765625
1756364858.8792875,-392.08984375,-218.75,-753.41796875,-28.80859375
1756364858.8819,600.09765625,-274.90234375,-790.52734375,587.40234375
1756364858.8845124,524.4140625,-179.19921875,-720.21484375,190.4296875
1756364858.891878,-449.70703125,-68.84765625,-689.94140625,-463.8671875
1756364858.8992434,-576.171875,-610.83984375,-908.203125,-158.69140625
1756364858.9066086,333.0078125,-827.63671875,-969.7265625,503.41796875
1756364858.913974,667.48046875,-185.05859375,-731.4453125,316.89453125
1756364858.9213395,-140.13671875,-84.9609375,-665.0390625,-342.28515625
1756364858.928705,-681.15234375,-472.16796875,-894.53125,-354.4921875
1756364858.9360704,67.87109375,-530.76171875,-991.69921875,326.171875
1756364858.943436,801.7578125,-109.86328125,-716.796875,503.41796875
1756364858.9508014,198.73046875,-46.875,-666.50390625,-148.4375
1756364858.9581666,-672.36328125,-723.6328125,-967.7734375,-461.9140625
1756364858.965532,-232.421875,-715.8203125,-937.98828125,119.62890625
1756364858.9728975,726.07421875,-20.5078125,-668.45703125,555.6640625
1756364858.9732027,422.8515625,-69.82421875,-667.96875,29.78515625
1756364858.973508,-582.51953125,-479.4921875,-943.84765625,-515.625
1756364858.9738133,-437.5,-429.6875,-959.47265625,-72.265625
1756364858.9741187,555.6640625,-81.0546875,-734.86328125,547.8515625
1756364858.974424,604.98046875,-246.58203125,-782.2265625,238.76953125
1756364858.974729,-350.5859375,-927.734375,-991.69921875,-410.15625
1756364858.9750345,-615.72265625,-855.46875,-1000.0,-267.578125
1756364858.9753397,283.69140625,-352.5390625,-913.0859375,409.1796875
1756364858.975645,732.91015625,-114.74609375,-702.1484375,392.578125
1756364858.9759502,-61.5234375,-201.66015625,-744.62890625,-290.52734375
1756364858.9762557,-687.98828125,-430.6640625,-940.4296875,-392.08984375
1756364858.9765608,13.671875,-207.03125,-820.80078125,281.73828125
1756364858.981392,834.9609375,-488.76953125,-864.74609375,589.84375
1756364858.986223,249.51171875,-687.01171875,-899.90234375,-68.84765625
1756364858.991054,-648.4375,-208.0078125,-716.796875,-477.05078125
1756364858.9958851,-230.95703125,-335.44921875,-854.00390625,146.97265625
1756364859.0007162,688.4765625,-364.74609375,-853.02734375,629.39453125
1756364859.005547,477.5390625,-372.55859375,-813.4765625,142.08984375
1756364859.010378,-515.13671875,-476.07421875,-872.55859375,-467.7734375
1756364859.0152092,-460.9375,-217.7734375,-766.11328125,-89.35546875
1756364859.0200405,559.08203125,-623.046875,-905.2734375,625.48828125
1756364859.024871,690.4296875,-916.9921875,-986.81640625,324.70703125
1756364859.0297024,-242.67578125,-431.15234375,-822.265625,-419.43359375
1756364859.0345335,-568.359375,-386.71875,-874.0234375,-262.20703125
1756364859.0394783,268.5546875,-243.1640625,-800.29296875,433.10546875
1756364859.0444238,820.80078125,-52.24609375,-626.953125,486.81640625
1756364859.0493689,81.0546875,-79.1015625,-651.85546875,-190.4296875
1756364859.054314,-641.6015625,-442.3828125,-874.51171875,-385.25390625
1756364859.0592592,0.48828125,-679.19921875,-989.2578125,275.390625
1756364859.0642042,871.09375,-474.12109375,-917.48046875,611.328125
1756364859.0691495,383.30078125,-529.78515625,-923.828125,-2.44140625
1756364859.0740943,-586.42578125,-644.53125,-1000.0,-474.609375
1756364859.0790398,-271.484375,-469.23828125,-957.03125,74.21875
1756364859.0839849,728.02734375,-204.58984375,-765.625,629.39453125
1756364859.08893,578.125,-26.3671875,-640.13671875,163.57421875
1756364859.0938752,-409.66796875,-499.51171875,-839.84375,-417.96875
1756364859.096442,-466.796875,-1000.0,-1000.0,-73.73046875
1756364859.0990086,475.09765625,-452.1484375,-839.84375,529.296875
1756364859.1015754,744.62890625,10.7421875,-582.03125,342.28515625
1756364859.1041422,-127.44140625,-140.13671875,-671.875,-315.4296875
1756364859.106709,-572.75390625,-355.95703125,-882.32421875,-258.30078125
1756364859.1092758,211.9140625,-521.484375,-1000.0,440.4296875
1756364859.1118424,841.796875,-438.4765625,-918.45703125,546.38671875
1756364859.1144092,163.0859375,-619.140625,-899.4140625,-126.46484375
1756364859.116976,-637.20703125,-526.85546875,-833.984375,-400.390625
1756364859.1195426,-52.24609375,-267.08984375,-774.90234375,255.859375
1756364859.1221094,857.421875,-270.5078125,-771.97265625,651.3671875
1756364859.1246762,437.5,-0.48828125,-545.41015625,43.45703125
1756364859.1273465,-539.55078125,-106.93359375,-620.1171875,-457.03125
1756364859.1300163,-304.19921875,-161.62109375,-716.796875,56.15234375
1756364859.132686,705.56640625,-65.4296875,-650.390625,669.921875
1756364859.1353562,642.578125,-650.87890625,-875.9765625,284.66796875
1756364859.1380262,-360.83984375,-739.2578125,-942.3828125,-402.83203125
1756364859.140696,-484.375,-540.52734375,-954.58984375,-133.30078125
1756364859.143366,436.5234375,-454.1015625,-901.85546875,547.36328125
1756364859.146036,752.9296875,4.8828125,-553.7109375,413.57421875
1756364859.1487062,-83.984375,-51.7578125,-559.5703125,-269.53125
1756364859.1513762,-625.0,-104.4921875,-671.38671875,-315.4296875
1756364859.154046,147.4609375,-469.7265625,-850.09765625,427.24609375
1756364859.156716,864.2578125,-725.09765625,-884.27734375,617.1875
1756364859.161654,222.16796875,-333.0078125,-718.75,-103.02734375
1756364859.166592,-625.0,-432.6171875,-860.3515625,-429.6875
1756364859.1715298,-131.8359375,-323.73046875,-828.125,182.12890625
1756364859.176468,812.98828125,-41.50390625,-620.1171875,644.04296875
1756364859.1814058,481.4453125,-57.6171875,-608.88671875,115.72265625
1756364859.1863437,-505.37109375,-491.69921875,-907.2265625,-439.94140625
1756364859.1912816,-347.65625,-903.3203125,-1000.0,34.66796875
1756364859.1962194,607.91015625,-897.94921875,-963.37890625,637.6953125
1756364859.2011576,612.79296875,-173.828125,-589.35546875,243.1640625
1756364859.2060957,-307.12890625,1.953125,-541.9921875,-380.37109375
1756364859.211033,-528.3203125,-251.953125,-787.59765625,-166.015625
1756364859.2159712,354.00390625,-83.49609375,-677.734375,511.23046875
1756364859.220797,781.25,83.984375,-553.7109375,449.70703125
1756364859.225623,-8.30078125,-150.87890625,-698.2421875,-239.74609375
1756364859.2304487,-629.8828125,-453.125,-906.73828125,-355.46875
1756364859.2352743,57.12890625,-379.8828125,-893.5546875,307.12890625
1756364859.2401,851.5625,-237.3046875,-763.18359375,589.84375
1756364859.244926,292.48046875,-309.5703125,-778.80859375,-39.55078125
1756364859.2497518,-644.04296875,-639.16015625,-977.05078125,-450.1953125
1756364859.2545776,-248.53515625,-534.1796875,-966.30859375,111.328125
1756364859.2594032,721.6796875,-52.24609375,-689.453125,601.07421875
1756364859.264229,486.81640625,-233.3984375,-686.5234375,135.25390625
1756364859.269055,-520.01953125,-989.74609375,-1000.0,-416.015625
1756364859.2738807,-480.95703125,-667.96875,-937.5,-78.61328125
1756364859.2764366,530.2734375,-68.359375,-671.38671875,562.01171875
1756364859.2789924,664.55078125,13.671875,-545.41015625,304.6875
1756364859.2815485,-275.390625,-118.1640625,-630.859375,-383.30078125
1756364859.2841043,-604.98046875,-294.43359375,-812.5,-256.34765625
1756364859.2866602,261.23046875,-234.375,-808.59375,431.640625
1756364859.289216,792.96875,-463.8671875,-879.39453125,475.5859375
1756364859.291772,48.33984375,-626.46484375,-946.77734375,-195.3125
1756364859.2943275,-659.66796875,-500.9765625,-898.4375,-402.34375
1756364859.2968836,-30.2734375,-317.3828125,-822.75390625,246.09375
1756364859.2994397,819.3359375,43.45703125,-559.08203125,596.6796875
1756364859.3019955,336.42578125,25.87890625,-532.2265625,-10.25390625
1756364859.3045514,-622.0703125,-218.26171875,-739.74609375,-483.3984375
1756364859.309552,-303.7109375,-291.50390625,-854.00390625,71.2890625
1756364859.3145523,689.453125,-771.484375,-984.86328125,659.66796875
1756364859.3195531,499.51171875,-678.7109375,-871.09375,163.57421875
1756364859.3245535,-496.58203125,-179.19921875,-690.4296875,-472.65625
1756364859.3295543,-513.671875,-278.3203125,-773.92578125,-99.609375
1756364859.334555,436.03515625,-406.25,-863.76953125,569.82421875
1756364859.3395555,659.66796875,-359.86328125,-771.97265625,340.8203125
1756364859.344556,-220.703125,-123.53515625,-645.99609375,-367.1875
1756364859.3495567,-610.3515625,-486.328125,-833.0078125,-278.80859375
1756364859.3545573,202.63671875,-980.46875,-1000.0,427.734375
1756364859.359558,798.33984375,-384.765625,-739.74609375,471.19140625
1756364859.3645585,128.41796875,27.83203125,-493.1640625,-202.1484375
1756364859.3670576,-667.48046875,-193.359375,-660.64453125,-459.9609375
1756364859.369557,-117.1875,-292.48046875,-812.01171875,178.22265625
1756364859.3720555,767.08984375,-140.13671875,-694.82421875,572.75390625
1756364859.3745546,344.7265625,-82.51953125,-632.8125,-17.578125
1756364859.3770535,-624.0234375,-572.75390625,-883.7890625,-515.13671875
1756364859.3795528,-379.39453125,-793.9453125,-1000.0,-8.30078125
1756364859.382052,607.91015625,-430.6640625,-893.5546875,576.66015625
1756364859.384551,517.578125,-154.296875,-653.3203125,164.55078125
1756364859.3870502,-488.76953125,-141.11328125,-624.51171875,-474.609375
1756364859.389549,-620.60546875,-228.02734375,-729.00390625,-192.87109375
1756364859.392048,313.4765625,-93.26171875,-655.76171875,472.16796875
1756364859.3945472,649.90234375,87.40234375,-502.44140625,347.65625
1756364859.401991,-166.9921875,-626.46484375,-838.8671875,-287.109375
1756364859.4094343,-689.453125,-829.1015625,-950.68359375,-339.84375
1756364859.4168775,106.4453125,-98.6328125,-604.4921875,316.89453125
1756364859.4243214,847.16796875,185.05859375,-406.25,542.96875
1756364859.4317648,196.2890625,144.53125,-401.3671875,-91.30859375
1756364859.4392085,-619.62890625,-250.48828125,-671.875,-378.90625
1756364859.446652,-66.89453125,-263.18359375,-722.16796875,233.88671875
1756364859.4540954,908.69140625,-228.02734375,-702.63671875,700.1953125
1756364859.461539,569.82421875,-648.4375,-890.13671875,172.8515625
1756364859.4689825,-424.31640625,-264.6484375,-642.578125,-409.66796875
1756364859.476426,-243.1640625,25.390625,-526.85546875,78.61328125
1756364859.4838696,740.234375,56.640625,-495.1171875,700.1953125
1756364859.4840944,748.046875,206.54296875,-373.53515625,338.8671875
1756364859.4843192,-210.44921875,117.1875,-437.98828125,-302.734375
1756364859.484544,-419.43359375,-31.25,-569.82421875,-83.0078125
1756364859.4847689,473.14453125,-407.71484375,-844.7265625,607.421875
1756364859.4849937,862.79296875,-268.06640625,-742.67578125,511.71875
1756364859.4852183,45.8984375,-216.796875,-676.7578125,-178.7109375
1756364859.4854436,-570.80078125,-483.3984375,-861.81640625,-281.73828125
1756364859.4856684,137.20703125,-196.77734375,-705.56640625,374.0234375
1756364859.4858932,921.38671875,44.43359375,-532.71484375,637.6953125
1756364859.486118,341.30859375,65.91796875,-478.515625,-4.8828125
1756364859.486343,-560.546875,-51.26953125,-598.14453125,-403.3203125
1756364859.4865675,-122.55859375,-706.54296875,-934.08203125,222.16796875
1756364859.4914007,814.453125,-623.046875,-832.51953125,685.05859375
1756364859.4962337,552.734375,98.14453125,-444.82421875,143.5546875
1756364859.5010667,-424.31640625,-41.9921875,-551.7578125,-410.15625
1756364859.5058997,-356.4453125,-116.69921875,-644.53125,-1.46484375
1756364859.510733,618.1640625,-58.10546875,-616.2109375,613.76953125
1756364859.515566,725.5859375,-253.41796875,-729.98046875,327.63671875
1756364859.5203989,-189.94140625,-502.9296875,-833.984375,-313.4765625
1756364859.5252318,-494.62890625,-968.26171875,-1000.0,-152.83203125
1756364859.5300648,334.9609375,-827.1484375,-937.01171875,474.609375
1756364859.5348978,839.35546875,-76.66015625,-547.36328125,439.94140625
1756364859.5397308,91.796875,66.40625,-443.359375,-202.63671875
1756364859.5445638,-612.79296875,-112.79296875,-598.14453125,-362.79296875
1756364859.5470643,26.85546875,-86.42578125,-624.0234375,304.19921875
1756364859.5495653,866.2109375,49.31640625,-526.3671875,619.62890625
1756364859.552066,372.0703125,-191.40625,-660.15625,13.671875
1756364859.5545669,-582.51953125,-373.53515625,-805.17578125,-443.84765625
1756364859.5570676,-240.234375,-207.03125,-725.09765625,104.4921875
1756364859.5595684,747.55859375,-371.58203125,-833.0078125,657.71484375
1756364859.5620694,561.03515625,-336.42578125,-759.765625,182.12890625
1756364859.5645702,-418.9453125,-217.28515625,-695.3125,-429.6875
1756364859.567071,-418.45703125,-344.23828125,-827.1484375,-61.5234375
1756364859.5695715,530.2734375,-323.73046875,-818.84765625,585.44921875
1756364859.5720725,739.74609375,-693.84765625,-917.96875,393.06640625
1756364859.5745733,-167.48046875,-805.6640625,-919.921875,-312.98828125
1756364859.579571,-604.00390625,-291.015625,-741.2109375,-299.8046875
1756364859.5845687,217.28515625,-93.75,-645.5078125,421.38671875
1756364859.5895665,821.2890625,53.7109375,-514.6484375,523.4375
1756364859.5945642,118.1640625,5.859375,-521.97265625,-149.90234375
1756364859.599562,-650.390625,-130.37109375,-656.25,-401.3671875
1756364859.6045594,-52.24609375,-502.44140625,-895.99609375,266.6015625
1756364859.6095572,834.47265625,-791.9921875,-952.1484375,638.671875
1756364859.614555,376.953125,-367.1875,-743.1640625,-6.8359375
1756364859.6195526,-580.56640625,-187.98828125,-720.703125,-478.515625
1756364859.6245503,-302.24609375,-249.0234375,-779.78515625,45.41015625
1756364859.629548,687.98828125,-156.73828125,-744.140625,613.28125
1756364859.6345458,604.98046875,-132.32421875,-683.59375,208.984375
1756364859.6420126,-357.421875,-350.09765625,-820.80078125,-416.9921875
1756364859.6494794,-465.8203125,-827.1484375,-1000.0,-119.62890625
1756364859.6569464,425.29296875,-614.2578125,-868.1640625,522.4609375
1756364859.6644132,711.9140625,21.484375,-567.3828125,355.46875
1756364859.67188,-125.0,-75.68359375,-630.859375,-315.4296875
1756364859.679347,-623.046875,-567.3828125,-923.33984375,-315.91796875
1756364859.6868138,127.44140625,-695.3125,-1000.0,362.79296875
1756364859.6942806,792.48046875,-156.73828125,-711.9140625,510.7421875
1756364859.7017474,184.5703125,13.18359375,-580.56640625,-143.5546875
1756364859.7092142,-641.11328125,-708.0078125,-939.453125,-426.7578125
1756364859.7166812,-165.0390625,-730.95703125,-941.89453125,165.52734375
1756364859.724148,769.04296875,-85.9375,-663.57421875,591.30859375
1756364859.7243514,432.6171875,-14.16015625,-583.984375,80.56640625
1756364859.724555,-555.17578125,-131.8359375,-670.41015625,-457.03125
1756364859.7247586,-386.23046875,-228.515625,-753.90625,-0.48828125
1756364859.724962,588.8671875,-244.140625,-780.2734375,600.5859375
1756364859.7251654,611.328125,-274.4140625,-767.08984375,252.9296875
1756364859.725369,-328.125,-793.9453125,-951.171875,-377.44140625
1756364859.7255726,-563.96484375,-765.625,-1000.0,-191.89453125
1756364859.725776,320.3125,-243.65234375,-810.546875,461.9140625
1756364859.725979,737.3046875,0.48828125,-577.1484375,400.390625
1756364859.726183,-63.4765625,-0.48828125,-549.8046875,-267.578125
1756364859.7263863,-669.921875,-148.92578125,-667.48046875,-347.65625
1756364859.72659,37.109375,-35.64453125,-664.0625,324.21875
1756364859.731428,810.05859375,-345.21484375,-758.7890625,592.28515625
1756364859.736266,232.421875,-774.90234375,-973.14453125,-73.2421875
1756364859.7411044,-684.08203125,-441.89453125,-908.203125,-507.8125
1756364859.7459424,-208.49609375,-200.1953125,-765.13671875,152.34375
1756364859.7507806,678.22265625,-99.12109375,-673.828125,539.55078125
1756364859.7556186,326.66015625,-419.43359375,-880.859375,-46.38671875
1756364859.7604568,-534.1796875,-709.9609375,-1000.0,-452.1484375
1756364859.765295,-402.83203125,-588.37890625,-979.00390625,-59.5703125
1756364859.770133,554.19921875,-681.640625,-975.09765625,577.1484375
1756364859.7749712,625.0,-1000.0,-1000.0,303.22265625
1756364859.7798092,-310.546875,-655.2734375,-912.59765625,-427.24609375
1756364859.7846477,-607.421875,-228.02734375,-790.52734375,-268.06640625
1756364859.7871418,249.0234375,-143.06640625,-756.34765625,446.77734375
1756364859.789636,752.44140625,26.85546875,-599.609375,452.1484375
1756364859.7921305,-3.41796875,53.7109375,-563.96484375,-218.26171875
1756364859.7946248,-672.8515625,-330.56640625,-828.125,-373.53515625
1756364859.7971191,-27.34375,-565.91796875,-979.98046875,279.78515625
1756364859.7996137,794.921875,-395.99609375,-916.50390625,585.44921875
1756364859.8021078,287.109375,-393.5546875,-876.46484375,-49.31640625
1756364859.804602,-616.69921875,-240.234375,-759.765625,-478.515625
1756364859.8070965,-249.51171875,-210.9375,-762.20703125,94.7265625
1756364859.8095908,682.6171875,-220.21484375,-744.140625,599.12109375
1756364859.8120852,500.48828125,87.890625,-555.6640625,116.69921875
1756364859.8145795,-453.61328125,-357.421875,-752.44140625,-449.21875
1756364859.8195815,-468.75,-967.28515625,-1000.0,-75.68359375
1756364859.8245838,431.640625,-421.38671875,-817.3828125,503.90625
1756364859.829586,635.7421875,29.296875,-592.28515625,292.48046875
1756364859.8345883,-232.421875,-67.87109375,-629.8828125,-344.7265625
1756364859.8395903,-624.0234375,-313.96484375,-853.515625,-272.4609375
1756364859.8445926,185.546875,-529.78515625,-996.58203125,425.78125
1756364859.8495948,775.87890625,-410.64453125,-906.73828125,498.046875
1756364859.8545969,87.40234375,-646.97265625,-894.53125,-161.62109375
1756364859.859599,-686.5234375,-773.4375,-957.03125,-412.59765625
1756364859.8646014,-112.3046875,-391.6015625,-905.2734375,199.21875
1756364859.8696034,787.109375,-272.4609375,-820.3125,603.515625
1756364859.8746057,362.3046875,-297.36328125,-779.296875,28.3203125
1756364859.8846018,-592.7734375,-462.40234375,-893.5546875,-482.421875
1756364859.894598,-321.77734375,-291.9921875,-842.7734375,10.25390625
1756364859.9045942,664.0625,-249.51171875,-814.94140625,602.5390625
1756364859.9145904,555.6640625,-516.6015625,-888.671875,202.1484375
1756364859.9245863,-414.0625,-360.83984375,-786.62109375,-439.453125
1756364859.9345827,-495.60546875,-472.16796875,-908.69140625,-131.8359375
1756364859.9445791,407.2265625,-593.75,-1000.0,524.90234375
1756364859.9545753,689.453125,-181.640625,-744.62890625,352.05078125
1756364859.9645717,-155.76171875,-111.328125,-633.30078125,-310.05859375
1756364859.9745677,-657.2265625,-207.03125,-779.296875,-313.96484375
1756364859.9845638,127.9296875,-570.80078125,-934.08203125,402.83203125
1756364859.99456,804.19921875,-810.05859375,-939.453125,558.10546875
1756364859.9947858,149.4140625,-343.75,-775.87890625,-170.41015625
1756364859.995011,-652.83203125,-298.828125,-825.68359375,-464.84375
1756364859.995237,-123.046875,-496.58203125,-972.65625,179.6875
1756364859.995463,796.38671875,-363.28125,-850.09765625,599.12109375
1756364859.995689,426.26953125,-107.421875,-640.625,35.64453125
1756364859.9959145,-547.8515625,-395.01953125,-867.1875,-480.95703125
1756364859.99614,-359.375,-873.046875,-1000.0,8.30078125
1756364859.9963658,604.4921875,-679.19921875,-895.01953125,593.26171875
1756364859.9965916,586.9140625,-125.0,-679.19921875,188.4765625
1756364859.996817,-346.6796875,-150.390625,-684.5703125,-464.35546875
1756364859.997043,-530.2734375,-230.46875,-766.6015625,-222.65625
1756364859.997269,365.72265625,-147.94921875,-725.09765625,481.4453125
1756364859.9976106,755.859375,32.71484375,-579.1015625,401.85546875
1756364859.9979525,-45.41015625,-142.578125,-668.45703125,-286.62109375
1756364859.9982944,-619.140625,-671.875,-982.421875,-372.0703125
1756364859.998636,75.1953125,-432.12890625,-893.06640625,283.69140625
1756364859.998978,820.80078125,-77.1484375,-677.734375,536.1328125
1756364859.9993198,250.9765625,-354.98046875,-833.0078125,-99.609375
1756364859.9996617,-635.25390625,-659.1796875,-999.0234375,-500.48828125
1756364860.0000036,-202.1484375,-696.77734375,-1000.0,83.49609375
1756364860.0003452,756.8359375,-238.28125,-838.8671875,556.640625
1756364860.0006871,500.48828125,-383.7890625,-788.57421875,63.96484375
1756364860.001029,-487.3046875,-790.0390625,-979.00390625,-494.62890625
1756364860.001371,-403.80859375,-431.15234375,-926.7578125,-96.19140625
1756364860.0059185,567.3828125,-249.0234375,-828.125,541.50390625
1756364860.010466,653.3203125,-78.61328125,-647.4609375,225.5859375
1756364860.0150137,-268.06640625,-153.3203125,-680.6640625,-453.125
1756364860.0195608,-550.78125,-314.453125,-835.9375,-285.64453125
1756364860.0241084,313.4765625,-190.91796875,-795.41015625,415.0390625
1756364860.028656,807.6171875,-575.1953125,-896.484375,459.47265625
1756364860.0332034,36.1328125,-1000.0,-1000.0,-208.49609375
1756364860.037751,-664.0625,-995.60546875,-998.046875,-435.05859375
1756364860.0422983,-35.64453125,-706.54296875,-952.1484375,190.91796875
1756364860.046846,798.828125,-152.34375,-685.546875,504.39453125
1756364860.0513933,294.43359375,48.828125,-513.671875,-117.67578125
1756364860.0559409,-646.484375,-13.18359375,-579.58984375,-546.38671875
1756364860.0608275,-265.13671875,-226.5625,-775.87890625,41.9921875
1756364860.0657146,714.84375,-515.13671875,-917.96875,571.2890625
1756364860.0706017,509.27734375,-238.76953125,-721.6796875,70.80078125
1756364860.0754886,-471.19140625,-116.2109375,-677.734375,-529.296875
1756364860.0803754,-479.98046875,-249.0234375,-806.640625,-154.296875
1756364860.0852623,467.28515625,-383.7890625,-920.8984375,520.99609375
1756364860.0901492,659.1796875,-407.2265625,-827.1484375,291.9921875
1756364860.095036,-225.09765625,-199.70703125,-685.546875,-406.25
1756364860.0999231,-589.84375,-457.51953125,-853.02734375,-293.45703125
1756364860.10481,210.9375,-1000.0,-1000.0,432.12890625
1756364860.1096969,750.0,-549.31640625,-832.51953125,433.10546875
1756364860.1145835,58.59375,-249.51171875,-745.1171875,-254.39453125
1756364860.1221423,-687.5,-368.1640625,-825.1953125,-465.33203125
1756364860.1297011,-97.16796875,-118.1640625,-691.89453125,188.96484375
1756364860.13726,788.0859375,-24.90234375,-623.046875,574.21875
1756364860.1448183,344.23828125,2.44140625,-629.39453125,-28.80859375
1756364860.1523771,-627.44140625,-550.78125,-845.703125,-501.46484375
1756364860.159936,-379.8828125,-963.37890625,-1000.0,8.30078125
1756364860.1674948,571.2890625,-482.91015625,-905.2734375,556.15234375
1756364860.1750534,475.5859375,-6.8359375,-567.87109375,153.3203125
1756364860.182612,-446.77734375,-60.05859375,-585.44921875,-472.16796875
1756364860.1901708,-515.13671875,-221.6796875,-751.46484375,-170.41015625
1756364860.1977296,424.31640625,-88.8671875,-669.921875,504.8828125
1756364860.2052882,712.890625,-68.84765625,-657.2265625,339.84375
1756364860.2055097,-167.48046875,-651.3671875,-893.5546875,-333.984375
1756364860.2057314,-671.875,-731.4453125,-960.9375,-362.3046875
1756364860.205953,95.703125,-447.75390625,-935.546875,326.171875
1756364860.2061746,745.1171875,-302.24609375,-810.05859375,476.5625
1756364860.206396,88.37890625,-38.0859375,-584.9609375,-213.37890625
1756364860.2066178,-718.26171875,-425.29296875,-848.6328125,-481.93359375
1756364860.206839,-207.51953125,-511.23046875,-955.56640625,141.11328125
1756364860.2070608,708.984375,-383.30078125,-830.56640625,575.68359375
1756364860.2072823,332.51953125,-613.28125,-878.90625,15.625
1756364860.207504,-659.66796875,-289.0625,-717.7734375,-547.8515625
1756364860.2077258,-463.8671875,-94.23828125,-669.43359375,-47.8515625
1756364860.2079473,516.6015625,-19.04296875,-613.76953125,573.73046875
1756364860.2101665,504.8828125,85.44921875,-505.37109375,187.01171875
1756364860.2123854,-430.6640625,-75.1953125,-612.3046875,-474.12109375
1756364860.2146046,-596.6796875,-109.375,-709.9609375,-222.16796875
1756364860.2168236,306.15234375,-549.31640625,-885.7421875,495.1171875
1756364860.2190428,692.3828125,-645.01953125,-865.72265625,396.97265625
1756364860.221262,-103.02734375,-356.4453125,-823.2421875,-306.15234375
1756364860.223481,-677.24609375,-723.6328125,-1000.0,-371.09375
1756364860.2257,25.390625,-530.2734375,-909.1796875,307.12890625
1756364860.227919,759.27734375,-31.25,-636.71875,532.2265625
1756364860.2301383,179.19921875,-80.078125,-653.80859375,-125.0
1756364860.2323573,-689.453125,-313.96484375,-870.60546875,-486.81640625
1756364860.2345765,-257.8125,-724.12109375,-985.83984375,160.64453125
1756364860.2395852,658.69140625,-1000.0,-1000.0,657.2265625
1756364860.244594,373.53515625,-652.34375,-864.2578125,67.3828125
1756364860.2496028,-580.078125,-158.69140625,-679.19921875,-526.3671875
1756364860.2546115,-461.9140625,-166.015625,-743.65234375,-85.44921875
1756364860.2596202,505.859375,-104.00390625,-709.47265625,562.98828125
1756364860.264629,562.01171875,-221.19140625,-766.11328125,255.859375
1756364860.2696378,-347.16796875,-571.2890625,-927.24609375,-419.43359375
1756364860.2746463,-607.421875,-873.53515625,-1000.0,-237.3046875
1756364860.2796552,224.609375,-582.03125,-948.73046875,438.4765625
1756364860.2846642,686.03515625,-2.44140625,-607.91015625,411.62109375
1756364860.2896729,-66.89453125,64.94140625,-506.34765625,-283.203125
1756364860.2946815,-716.796875,-194.3359375,-728.02734375,-418.45703125
1756364860.2972867,-80.56640625,-139.16015625,-728.515625,262.20703125
1756364860.2998922,704.58984375,133.30078125,-541.50390625,552.734375
1756364860.3024974,189.453125,-385.25390625,-753.90625,-65.4296875
1756364860.3051028,-750.48828125,-677.734375,-914.55078125,-498.046875
1756364860.307708,-334.47265625,-185.05859375,-720.703125,40.52734375
1756364860.3103132,673.33984375,-372.55859375,-852.05078125,572.75390625
1756364860.312919,408.69140625,-396.97265625,-834.9609375,88.8671875
1756364860.315524,-548.33984375,-232.421875,-719.7265625,-528.3203125
1756364860.3181293,-522.4609375,-241.69921875,-769.53125,-156.73828125
1756364860.3207345,414.0625,-72.75390625,-680.17578125,509.765625
1756364860.32334,593.26171875,-557.12890625,-830.56640625,308.10546875
1756364860.3259451,-321.2890625,-839.35546875,-970.21484375,-416.9921875
1756364860.330944,-692.3828125,-317.3828125,-796.38671875,-354.4921875
1756364860.3359427,159.66796875,-159.1796875,-715.8203125,398.92578125
1756364860.3409417,709.9609375,-50.29296875,-621.09375,473.6328125
1756364860.3459406,-44.921875,-81.54296875,-604.98046875,-246.58203125
1756364860.3509393,-787.59765625,-237.3046875,-753.90625,-478.515625
1756364860.3559382,-168.45703125,-587.890625,-958.0078125,222.16796875
1756364860.360937,697.265625,-1000.0,-1000.0,622.55859375
1756364860.3659358,230.95703125,-658.69140625,-863.28125,-39.55078125
1756364860.3709347,-702.63671875,-242.67578125,-739.2578125,-556.15234375
1756364860.3759336,-377.9296875,-232.421875,-755.37109375,6.8359375
1756364860.3809323,612.3046875,-62.98828125,-648.4375,585.44921875
1756364860.3859313,484.375,21.484375,-548.828125,149.90234375
1756364860.3908758,-496.09375,-50.78125,-613.76953125,-480.95703125
1756364860.3958206,-565.91796875,-575.1953125,-909.66796875,-126.46484375
1756364860.4007652,342.7734375,-636.23046875,-934.08203125,549.31640625
1756364860.4057095,604.98046875,-85.9375,-630.37109375,350.09765625
1756364860.4106543,-223.14453125,-143.06640625,-639.6484375,-322.75390625
1756364860.4155989,-670.8984375,-556.640625,-945.80078125,-303.22265625
1756364860.4205437,109.375,-507.32421875,-924.31640625,397.4609375
1756364860.4254882,767.578125,-98.14453125,-624.51171875,537.109375
1756364860.4304328,127.9296875,-90.33203125,-648.92578125,-160.15625
1756364860.4353776,-663.0859375,-704.58984375,-924.31640625,-403.80859375
1756364860.4403222,-150.87890625,-820.3125,-944.82421875,251.953125
1756364860.4452667,735.3515625,-161.62109375,-664.0625,625.9765625
1756364860.4477124,372.55859375,-34.66796875,-572.265625,50.29296875
1756364860.450158,-601.5625,-156.25,-652.34375,-478.02734375
1756364860.4526036,-363.28125,-167.96875,-698.73046875,33.69140625
1756364860.4550493,608.88671875,7.32421875,-597.65625,640.13671875
1756364860.457495,541.015625,-153.3203125,-655.76171875,253.90625
1756364860.4599404,-401.85546875,-721.19140625,-947.75390625,-399.4140625
1756364860.462386,-559.08203125,-791.015625,-1000.0,-148.4375
1756364860.4648318,343.75,-471.19140625,-895.5078125,538.57421875
1756364860.4672775,698.2421875,-164.0625,-698.2421875,417.96875
1756364860.4697232,-119.140625,-168.45703125,-667.96875,-266.6015625
1756364860.4721687,-698.73046875,-246.58203125,-716.30859375,-320.3125
1756364860.4746144,-1.46484375,-125.9765625,-696.77734375,363.28125
1756364860.4821138,729.00390625,-458.0078125,-816.89453125,612.79296875
1756364860.4896135,123.046875,-899.90234375,-977.05078125,-43.45703125
1756364860.497113,-764.16015625,-467.7734375,-798.33984375,-468.26171875
1756364860.5046124,-320.3125,-203.61328125,-685.546875,140.625
1756364860.512112,584.9609375,-103.02734375,-602.5390625,640.13671875
1756364860.5196116,227.05078125,-339.35546875,-732.91015625,109.375
1756364860.527111,-800.29296875,-685.05859375,-954.58984375,-470.703125
1756364860.5346107,-673.33984375,-625.0,-965.8203125,-35.64453125
1756364860.5421102,295.8984375,-830.56640625,-1000.0,621.09375
1756364860.5496097,324.70703125,-858.3984375,-944.82421875,258.7890625
1756364860.5571094,-614.74609375,-352.5390625,-732.91015625,-460.44921875
1756364860.5646088,-866.2109375,-310.05859375,-777.83203125,-249.51171875
1756364860.5649505,0.48828125,-335.9375,-839.35546875,431.640625
1756364860.5652924,479.00390625,-130.37109375,-657.71484375,418.9453125
1756364860.565634,-258.7890625,-15.625,-531.25,-266.6015625
1756364860.5659757,-893.5546875,-356.93359375,-773.4375,-403.80859375
1756364860.5663176,-218.75,-631.8359375,-967.7734375,241.2109375
1756364860.5666592,575.1953125,-552.734375,-952.1484375,498.53515625
1756364860.5670009,32.71484375,-483.3984375,-889.6484375,-95.21484375
1756364860.5673428,-857.421875,-265.625,-733.88671875,-505.37109375
1756364860.5676844,-416.015625,-224.609375,-765.13671875,83.984375
1756364860.568026,592.28515625,-165.52734375,-735.83984375,604.4921875
1756364860.568368,383.7890625,-219.23828125,-772.4609375,116.69921875
1756364860.5687096,-582.03125,-767.08984375,-993.65234375,-452.63671875
1756364860.5733724,-552.734375,-795.8984375,-959.47265625,-84.47265625
1756364860.578035,414.55078125,-193.84765625,-731.4453125,541.9921875
1756364860.582698,609.86328125,-36.1328125,-618.65234375,300.29296875
1756364860.5873604,-288.57421875,-98.14453125,-628.41796875,-375.48828125
1756364860.5920231,-658.69140625,-249.51171875,-779.78515625,-262.20703125
1756364860.596686,183.59375,-487.79296875,-958.49609375,463.8671875
1756364860.6013486,738.76953125,-461.42578125,-919.921875,511.23046875
1756364860.6060114,26.3671875,-650.87890625,-916.015625,-164.0625
1756364860.610674,-713.8671875,-1000.0,-1000.0,-357.91015625
1756364860.615337,-151.85546875,-735.83984375,-933.10546875,242.67578125
1756364860.6199994,716.30859375,-29.78515625,-593.75,588.37890625
1756364860.6246622,287.109375,52.24609375,-507.8125,12.20703125
1756364860.6272674,-631.8359375,-177.734375,-697.75390625,-462.890625
1756364860.6298723,-305.6640625,-275.87890625,-784.66796875,81.54296875
1756364860.6324775,655.2734375,-366.69921875,-824.70703125,645.99609375
1756364860.6350827,496.58203125,-516.11328125,-858.88671875,190.4296875
1756364860.6376877,-442.87109375,-399.90234375,-797.8515625,-426.26953125
1756364860.640293,-458.984375,-577.63671875,-950.1953125,-57.6171875
1756364860.642898,450.1953125,-535.64453125,-930.17578125,602.5390625
1756364860.645503,687.01171875,-0.48828125,-541.9921875,396.97265625
1756364860.6481082,-172.8515625,-62.5,-547.8515625,-280.76171875
1756364860.6507134,-635.25390625,-183.59375,-726.5625,-253.90625
1756364860.6533184,140.13671875,-512.20703125,-878.90625,461.42578125
1756364860.6559236,771.484375,-798.828125,-923.33984375,610.3515625
1756364860.660813,119.62890625,-357.91015625,-732.421875,-106.93359375
1756364860.6657028,-651.85546875,-305.6640625,-749.0234375,-392.08984375
1756364860.6705923,-112.3046875,-319.82421875,-761.23046875,253.90625
1756364860.675482,770.5078125,-140.13671875,-634.27734375,658.69140625
1756364860.6803718,390.13671875,-224.609375,-635.25390625,94.23828125
1756364860.6852612,-565.91796875,-537.109375,-861.328125,-424.31640625
1756364860.690151,-330.078125,-876.953125,-1000.0,98.6328125
1756364860.6950407,648.92578125,-846.19140625,-937.01171875,668.9453125
1756364860.6999302,592.28515625,-254.8828125,-622.0703125,214.35546875
1756364860.70482,-331.0546875,-144.53125,-564.453125,-403.80859375
1756364860.7097094,-476.07421875,-384.27734375,-781.73828125,-120.60546875
1756364860.7145991,395.99609375,-385.25390625,-791.9921875,556.15234375
1756364860.7244582,744.140625,-71.2890625,-535.15625,443.84765625
1756364860.7343175,-58.10546875,-227.5390625,-615.234375,-235.3515625
1756364860.7441766,-631.34765625,-647.94921875,-923.828125,-312.98828125
1756364860.7540357,100.09765625,-338.37890625,-757.8125,366.2109375
1756364860.763895,793.9453125,-52.734375,-533.203125,579.58984375
1756364860.773754,148.4375,-388.18359375,-719.23828125,-73.73046875
1756364860.7836132,-618.65234375,-526.3671875,-840.33203125,-343.26171875
1756364860.7934723,-138.18359375,-508.7890625,-856.4453125,291.9921875
1756364860.8033316,713.37890625,-206.0546875,-627.44140625,691.40625
1756364860.8131907,404.78515625,-134.765625,-528.3203125,166.9921875
1756364860.82305,-669.43359375,-928.22265625,-992.67578125,-389.16015625
1756364860.832909,-717.28515625,-495.60546875,-791.50390625,-56.15234375
1756364860.833222,170.8984375,297.8515625,-345.703125,537.59765625
1756364860.8335347,176.26953125,450.1953125,-170.8984375,266.11328125
1756364860.8338473,-736.81640625,404.296875,-150.390625,-373.046875
1756364860.83416,-998.53515625,305.6640625,-237.79296875,-217.28515625
1756364860.834473,-206.0546875,375.0,-232.421875,484.375
1756364860.8347857,277.83203125,123.046875,-393.5546875,523.4375
1756364860.8350985,-430.6640625,-50.78125,-458.984375,-200.68359375
1756364860.835411,-1000.0,149.4140625,-283.203125,-399.90234375
1756364860.835724,-356.93359375,320.80078125,-168.45703125,244.140625
1756364860.8360367,439.453125,502.44140625,-0.48828125,505.859375
1756364860.8363492,-80.56640625,262.20703125,-69.82421875,-26.3671875
1756364860.836662,-833.49609375,53.22265625,-215.8203125,-368.65234375
1756364860.837012,-376.953125,66.89453125,-252.9296875,190.91796875
1756364860.8373623,567.87109375,-315.4296875,-520.01953125,729.98046875
1756364860.8377123,371.58203125,-144.53125,-389.6484375,224.609375
1756364860.8380623,-596.6796875,81.0546875,-266.11328125,-398.4375
1756364860.8384123,-541.015625,-108.3984375,-460.44921875,-35.64453125
1756364860.8387628,475.5859375,-294.921875,-544.921875,606.93359375
1756364860.8391128,640.13671875,-305.6640625,-452.1484375,356.4453125
1756364860.8394628,-259.765625,-85.44921875,-236.81640625,-279.296875
1756364860.839813,-607.91015625,-431.640625,-489.2578125,-95.703125
1756364860.840163,158.203125,-871.09375,-884.27734375,590.8203125
1756364860.8405132,641.11328125,-321.77734375,-469.7265625,556.15234375
1756364860.8408632,-75.1953125,-54.19921875,-235.83984375,-142.578125
1756364860.845459,-732.421875,-388.671875,-520.99609375,-294.43359375
1756364860.8500547,-46.875,-621.09375,-669.43359375,436.5234375
1756364860.8546505,825.1953125,-445.3125,-493.65234375,772.4609375
1756364860.859246,391.6015625,-224.609375,-320.80078125,132.32421875
1756364860.8638418,-529.78515625,-620.1171875,-667.96875,-318.359375
1756364860.8684373,-250.48828125,-1000.0,-1000.0,244.62890625
1756364860.873033,677.24609375,-991.69921875,-1000.0,750.0
1756364860.8776288,546.875,-624.0234375,-745.60546875,277.34375
1756364860.8822246,-368.65234375,-384.765625,-536.62109375,-302.24609375
1756364860.8868203,-366.2109375,-590.8203125,-685.546875,40.0390625
1756364860.8914158,576.171875,-577.63671875,-686.03515625,693.359375
1756364860.8960116,812.5,-457.03125,-550.78125,503.41796875
1756364860.9008944,-61.5234375,-690.4296875,-725.09765625,-183.10546875
1756364860.905777,-557.12890625,-732.91015625,-835.44921875,-186.03515625
1756364860.9106598,210.9375,-493.1640625,-704.58984375,460.44921875
1756364860.9155426,901.3671875,-404.296875,-630.859375,568.84765625
1756364860.9204252,240.234375,-670.8984375,-748.046875,-98.14453125
1756364860.925308,-603.515625,-978.02734375,-942.3828125,-398.92578125
1756364860.9301908,-78.61328125,-960.44921875,-957.51953125,226.07421875
1756364860.9350734,769.04296875,-836.42578125,-857.421875,666.015625
1756364860.9399562,284.66796875,-976.07421875,-974.609375,131.34765625
1756364860.944839,-768.5546875,-744.62890625,-827.63671875,-456.54296875
1756364860.9497216,-514.6484375,-368.1640625,-585.44921875,0.0
1756364860.9546044,568.84765625,-240.234375,-510.25390625,625.9765625
1756364860.9594457,558.10546875,-136.71875,-371.09375,236.328125
1756364860.9642868,-385.7421875,-253.90625,-409.1796875,-402.34375
1756364860.969128,-488.28125,-364.2578125,-529.296875,-138.18359375
1756364860.9739692,413.0859375,-561.5234375,-713.8671875,532.2265625
1756364860.9788103,704.58984375,-481.93359375,-643.06640625,396.97265625
1756364860.9836516,-138.18359375,-559.5703125,-652.83203125,-272.94921875
1756364860.9884927,-685.05859375,-947.265625,-946.2890625,-315.91796875
1756364860.9933338,33.203125,-851.5625,-883.30078125,312.98828125
1756364860.9981751,756.8359375,-404.78515625,-515.625,519.04296875
1756364861.0030162,179.6875,-266.6015625,-406.25,-63.4765625
1756364861.0078576,-682.12890625,-429.19921875,-521.484375,-404.296875
1756364861.012699,-199.21875,-859.375,-868.1640625,223.14453125
1756364861.0154755,716.796875,-811.03515625,-868.65234375,664.0625
1756364861.0182528,374.0234375,-217.28515625,-424.31640625,82.51953125
1756364861.0210297,-582.03125,-232.421875,-452.63671875,-453.125
1756364861.0238068,-422.8515625,-345.703125,-584.9609375,-17.578125
1756364861.026584,581.54296875,-351.5625,-608.3984375,595.703125
1756364861.0293608,645.99609375,-538.57421875,-675.29296875,298.828125
1756364861.032138,-283.69140625,-817.87109375,-818.359375,-319.3359375
1756364861.034915,-544.921875,-972.65625,-978.02734375,-122.0703125
1756364861.037692,287.59765625,-593.26171875,-747.0703125,509.765625
1756364861.0404692,741.69921875,-360.3515625,-552.24609375,459.9609375
1756364861.043246,-16.11328125,-687.98828125,-766.11328125,-207.03125
1756364861.0460231,-627.9296875,-696.77734375,-815.4296875,-350.09765625
1756364861.0485194,71.2890625,-477.05078125,-694.82421875,304.6875
1756364861.0510154,883.7890625,-313.4765625,-558.59375,588.37890625
1756364861.0535116,385.25390625,-658.203125,-764.6484375,21.97265625
1756364861.056008,-515.13671875,-958.49609375,-975.5859375,-380.37109375
1756364861.058504,-141.11328125,-703.125,-823.2421875,136.23046875
1756364861.0610003,826.171875,-750.0,-827.1484375,648.4375
1756364861.0634964,598.14453125,-855.46875,-865.234375,147.94921875
1756364861.0659926,-382.32421875,-723.14453125,-778.80859375,-454.58984375
1756364861.0684888,-329.58984375,-608.3984375,-731.4453125,-64.453125
1756364861.0709848,655.2734375,-630.37109375,-786.1328125,583.49609375
1756364861.073481,823.2421875,-893.5546875,-943.359375,362.3046875
1756364861.075977,-46.38671875,-946.2890625,-977.5390625,-252.9296875
1756364861.0809758,-364.74609375,-892.578125,-950.68359375,-146.484375
1756364861.085974,429.6875,-948.73046875,-985.83984375,487.3046875
1756364861.0909724,937.01171875,-632.8125,-753.41796875,515.625
1756364861.0959706,189.453125,-574.70703125,-696.2890625,-167.48046875
1756364861.100969,-488.28125,-853.515625,-920.8984375,-341.796875
1756364861.1059675,130.859375,-991.69921875,-999.51171875,341.796875
1756364861.1109655,925.29296875,-1000.0,-1000.0,674.8046875
1756364861.1159642,448.73046875,-891.6015625,-930.17578125,32.2265625
1756364861.1209624,-466.30859375,-815.4296875,-890.13671875,-440.91796875
1756364861.1259608,-140.13671875,-855.46875,-961.42578125,102.05078125
1756364861.130959,815.4296875,-812.98828125,-924.8046875,636.71875
1756364861.1359577,663.57421875,-864.2578125,-920.41015625,195.3125
1756364861.1407888,-312.98828125,-883.7890625,-935.546875,-426.7578125
1756364861.1456203,-315.4296875,-985.83984375,-1000.0,-69.82421875
1756364861.1504517,601.5625,-940.4296875,-973.6328125,561.03515625
1756364861.1552832,783.203125,-863.28125,-904.78515625,354.00390625
1756364861.1601143,-74.21875,-993.65234375,-983.88671875,-270.5078125
1756364861.164946,-509.765625,-1000.0,-1000.0,-232.421875
1756364861.1697774,282.2265625,-1000.0,-1000.0,429.19921875
1756364861.1746087,893.5546875,-956.0546875,-969.23828125,531.25
1756364861.1794405,216.30859375,-940.4296875,-949.70703125,-111.81640625
1756364861.1842716,-552.24609375,-999.0234375,-996.09375,-329.1015625
1756364861.1891031,-30.76171875,-1000.0,-1000.0,262.20703125
1756364861.1939344,857.421875,-937.01171875,-974.609375,585.9375
1756364861.1965015,503.90625,-875.9765625,-921.38671875,48.33984375
1756364861.1990683,-483.3984375,-978.02734375,-976.5625,-443.84765625
1756364861.2016356,-292.96875,-1000.0,-1000.0,26.3671875
1756364861.204203,645.01953125,-942.87109375,-968.26171875,577.1484375
1756364861.2067697,552.24609375,-917.48046875,-947.75390625,201.171875
1756364861.2093368,-388.671875,-999.0234375,-998.046875,-392.578125
1756364861.211904,-498.046875,-1000.0,-1000.0,-148.92578125
1756364861.214471,415.0390625,-983.3984375,-996.09375,472.16796875
1756364861.2170382,710.9375,-839.84375,-885.25390625,318.84765625
1756364861.2196052,-125.48828125,-881.34765625,-896.97265625,-347.65625
1756364861.2221725,-635.7421875,-1000.0,-1000.0,-366.2109375
1756364861.2247393,90.8203125,-992.67578125,-999.51171875,290.0390625
1756364861.2297306,770.01953125,-987.79296875,-998.046875,487.3046875
1756364861.234722,148.92578125,-998.53515625,-1000.0,-180.6640625
1756364861.2397132,-670.8984375,-999.0234375,-997.0703125,-573.2421875
1756364861.2447042,-176.26953125,-982.91015625,-1000.0,45.8984375
1756364861.2496955,715.8203125,-860.83984375,-941.40625,508.7890625
1756364861.2546868,367.1875,-901.85546875,-936.5234375,-0.48828125
1756364861.259678,-586.42578125,-1000.0,-1000.0,-523.92578125
1756364861.2646694,-405.2734375,-963.37890625,-997.0703125,-104.4921875
1756364861.2696605,546.38671875,-970.703125,-1000.0,502.9296875
1756364861.2746518,562.01171875,-989.2578125,-989.2578125,153.80859375
1756364861.279643,-353.02734375,-958.984375,-979.00390625,-500.9765625
1756364861.2846344,-573.73046875,-906.25,-992.1875,-289.0625
1756364861.2872458,308.10546875,-762.20703125,-928.22265625,380.37109375
1756364861.289857,728.515625,-639.6484375,-817.3828125,329.1015625
1756364861.292468,-78.125,-631.34765625,-773.4375,-354.4921875
1756364861.2950797,-697.265625,-790.52734375,-879.39453125,-437.98828125
1756364861.2976909,-34.66796875,-979.4921875,-998.046875,236.81640625
1756364861.300302,723.6328125,-995.1171875,-1000.0,485.83984375
1756364861.3029132,202.63671875,-913.57421875,-968.26171875,-128.41796875
1756364861.3055246,-683.10546875,-796.38671875,-888.671875,-534.1796875
1756364861.308136,-287.59765625,-693.359375,-851.5625,41.50390625
1756364861.3107471,657.2265625,-498.046875,-706.54296875,558.10546875
1756364861.3133583,429.19921875,-479.4921875,-667.48046875,63.4765625
1756364861.3159697,-508.30078125,-794.921875,-881.8359375,-496.58203125
1756364861.3209746,-442.87109375,-1000.0,-1000.0,-110.3515625
1756364861.3259797,500.0,-826.66015625,-926.26953125,468.26171875
1756364861.3309846,619.140625,-481.4453125,-706.0546875,201.171875
1756364861.3359897,-286.62109375,-496.09375,-678.22265625,-446.2890625
1756364861.3409946,-617.1875,-692.3828125,-847.65625,-316.89453125
1756364861.3459997,191.40625,-910.15625,-991.2109375,360.83984375
1756364861.3510046,690.4296875,-929.6875,-972.16796875,386.23046875
1756364861.3560095,-5.37109375,-966.30859375,-977.05078125,-240.72265625
1756364861.3610146,-682.6171875,-961.9140625,-986.328125,-440.91796875
1756364861.3660195,-89.84375,-681.15234375,-828.125,128.41796875
1756364861.3710246,750.9765625,-433.59375,-638.671875,462.40234375
1756364861.3760295,295.41015625,-341.30859375,-530.76171875,-103.02734375
1756364861.37841,-633.30078125,-486.328125,-641.6015625,-523.4375
1756364861.3807905,-324.21875,-525.87890625,-720.703125,-4.8828125
1756364861.3831708,644.53125,-523.92578125,-733.88671875,531.25
1756364861.3855512,524.90234375,-858.88671875,-931.15234375,131.8359375
1756364861.3879318,-432.6171875,-904.296875,-945.80078125,-476.5625
1756364861.3903122,-481.4453125,-895.5078125,-951.66015625,-151.3671875
1756364861.3926926,444.3359375,-836.42578125,-943.84765625,472.65625
1756364861.3950732,679.6875,-530.76171875,-745.1171875,264.16015625
1756364861.3974535,-180.17578125,-406.73828125,-607.91015625,-386.23046875
1756364861.399834,-641.6015625,-450.68359375,-672.8515625,-374.51171875
1756364861.4022143,137.6953125,-715.33203125,-875.0,343.75
1756364861.404595,741.2109375,-1000.0,-1000.0,478.02734375
