timestamps,eeg_1,eeg_2,eeg_3,eeg_4
1756366724.2589986,-67.3828125,13.18359375,20.5078125,-3.90625
1756366724.2626324,-20.5078125,16.6015625,15.625,-3.41796875
1756366724.266266,37.59765625,22.94921875,19.04296875,1.953125
1756366724.2698994,-16.6015625,18.06640625,12.6953125,0.9765625
1756366724.273533,-124.0234375,16.11328125,5.37109375,-20.01953125
1756366724.2771666,-78.61328125,18.06640625,-3.41796875,-29.296875
1756366724.2808,39.55078125,20.01953125,-14.16015625,4.8828125
1756366724.2844338,9.765625,16.6015625,-5.37109375,17.578125
1756366724.288067,-70.80078125,21.97265625,13.18359375,-11.23046875
1756366724.2917008,-52.24609375,20.5078125,20.01953125,-15.625
1756366724.2953346,18.06640625,13.671875,7.8125,-2.9296875
1756366724.298968,6.8359375,17.08984375,6.34765625,4.39453125
1756366724.3038473,-63.4765625,18.5546875,8.30078125,-1.46484375
1756366724.3087263,-65.4296875,16.6015625,2.9296875,-11.23046875
1756366724.3136058,24.90234375,21.484375,4.8828125,-6.8359375
1756366724.318485,36.62109375,23.92578125,4.8828125,-11.71875
1756366724.3233645,-30.2734375,15.13671875,10.7421875,-12.6953125
1756366724.3282435,-77.1484375,3.41796875,13.18359375,10.7421875
1756366724.3331227,-47.8515625,-11.71875,6.34765625,13.671875
1756366724.338002,7.32421875,-1.46484375,4.39453125,-0.9765625
1756366724.3428812,-25.87890625,11.23046875,4.8828125,5.859375
1756366724.3477604,-76.66015625,15.625,4.39453125,4.8828125
1756366724.3526397,-58.59375,23.92578125,6.34765625,-8.7890625
1756366724.357519,7.8125,14.6484375,11.23046875,-6.34765625
1756366724.361353,20.5078125,5.859375,7.32421875,-2.44140625
1756366724.3651867,-81.0546875,10.25390625,-6.8359375,-10.7421875
1756366724.3690205,-97.65625,0.48828125,-3.90625,-19.04296875
1756366724.3728545,-5.37109375,1.46484375,6.34765625,-6.34765625
1756366724.3766885,5.37109375,2.9296875,1.953125,-11.71875
1756366724.3805225,-69.3359375,1.46484375,-3.90625,-23.4375
1756366724.384356,-104.00390625,13.18359375,-2.44140625,-18.5546875
1756366724.38819,-62.01171875,15.625,0.48828125,-15.13671875
1756366724.392024,-13.671875,-7.8125,-8.7890625,-23.92578125
1756366724.3958578,-56.640625,-9.27734375,-17.578125,-27.83203125
1756366724.3996916,-108.3984375,-15.625,-18.06640625,-41.9921875
1756366724.4035256,-53.7109375,-11.23046875,3.41796875,-34.1796875
1756366724.4073727,14.16015625,9.27734375,14.6484375,-17.08984375
1756366724.41122,-23.92578125,-8.30078125,-1.46484375,-40.52734375
1756366724.4150672,-127.9296875,-14.6484375,-2.9296875,-45.41015625
1756366724.4189143,-130.37109375,4.39453125,-4.39453125,-31.25
1756366724.4227617,-11.71875,5.37109375,-2.9296875,-4.39453125
1756366724.4266088,-3.90625,7.8125,-1.46484375,15.13671875
1756366724.430456,-75.68359375,8.30078125,-3.90625,-10.7421875
1756366724.4343033,-74.70703125,-15.625,-10.25390625,-37.59765625
1756366724.4381504,-21.97265625,-42.48046875,-16.6015625,-9.765625
1756366724.4419975,2.9296875,-18.5546875,-13.671875,11.71875
1756366724.445845,-56.640625,18.5546875,0.48828125,0.0
1756366724.449692,-82.03125,14.6484375,0.0,-3.90625
1756366724.4546304,-24.90234375,10.25390625,-1.46484375,-4.39453125
1756366724.459569,12.6953125,0.0,0.0,-16.6015625
1756366724.464507,-17.08984375,-22.94921875,-5.37109375,-13.671875
1756366724.469446,-88.8671875,-32.71484375,-11.23046875,-25.390625
1756366724.4743843,-89.84375,-16.11328125,-17.08984375,-35.15625
1756366724.479323,-30.76171875,-29.296875,-31.25,-39.0625
1756366724.4842613,-31.25,-24.4140625,-26.3671875,-33.203125
1756366724.4891996,-100.09765625,8.7890625,-19.04296875,-18.5546875
1756366724.4941382,-119.62890625,1.953125,-32.2265625,-24.4140625
1756366724.4990766,-41.9921875,-1.46484375,-20.5078125,-16.6015625
1756366724.5040152,-14.6484375,6.34765625,-5.859375,-18.06640625
1756366724.5089536,-101.07421875,-2.44140625,-12.20703125,-30.2734375
1756366724.5114408,-96.6796875,-18.5546875,-23.92578125,-43.45703125
1756366724.513928,-26.85546875,-31.25,-25.390625,-42.96875
1756366724.5164154,-25.87890625,-42.48046875,-10.25390625,-17.08984375
1756366724.5189023,-64.94140625,-37.109375,-12.6953125,-18.06640625
1756366724.5213895,-114.2578125,-15.625,-24.4140625,-27.83203125
1756366724.5238771,-63.96484375,-3.90625,-19.53125,-32.2265625
1756366724.5263643,-6.34765625,-13.671875,-25.87890625,-30.2734375
1756366724.5288515,-50.78125,-17.08984375,-32.71484375,-27.34375
1756366724.5313387,-118.65234375,-22.94921875,-27.34375,-21.484375
1756366724.533826,-91.30859375,-19.53125,-22.4609375,-17.578125
1756366724.5363133,2.9296875,-12.20703125,-12.6953125,-19.53125
1756366724.5388005,0.9765625,-5.37109375,-11.23046875,-6.8359375
1756366724.5436373,-65.4296875,-3.41796875,-14.6484375,-12.20703125
1756366724.5484743,-62.98828125,-9.27734375,-13.671875,-21.484375
1756366724.553311,-13.671875,-9.27734375,-11.23046875,-13.671875
1756366724.558148,-27.34375,-18.5546875,-19.04296875,-10.7421875
1756366724.5629847,-101.07421875,-25.87890625,-23.4375,-14.16015625
1756366724.5678215,-129.39453125,-7.32421875,-8.7890625,-9.27734375
1756366724.5726583,-44.921875,-1.953125,-3.41796875,-18.06640625
1756366724.577495,-16.11328125,-8.7890625,-9.27734375,-17.08984375
1756366724.582332,-100.09765625,-17.08984375,-21.484375,-22.94921875
1756366724.5871692,-123.046875,-36.62109375,-22.94921875,-37.109375
1756366724.592006,-67.87109375,-26.85546875,-8.7890625,-28.80859375
1756366724.5968428,-2.44140625,-6.8359375,-2.44140625,-34.1796875
1756366724.5995195,-31.25,-0.48828125,-12.6953125,-35.64453125
1756366724.6021965,-128.90625,6.34765625,-9.27734375,-36.1328125
1756366724.6048732,-123.046875,6.34765625,-9.27734375,-41.50390625
1756366724.60755,-51.7578125,-1.46484375,-21.97265625,-24.4140625
1756366724.610227,-41.50390625,-0.9765625,-13.18359375,-17.578125
1756366724.6129038,-91.30859375,-5.859375,-8.30078125,-15.625
1756366724.6155806,-90.33203125,-11.23046875,-8.30078125,-6.34765625
1756366724.6182575,-19.53125,-7.8125,-9.765625,-14.16015625
1756366724.6209345,0.48828125,-1.953125,-10.7421875,-11.23046875
1756366724.6236112,-55.6640625,-4.8828125,-7.8125,-10.7421875
1756366724.626288,-108.3984375,-9.27734375,-6.34765625,-10.7421875
1756366724.628965,-68.359375,-7.32421875,-13.671875,-4.39453125
1756366724.6327205,-8.7890625,-14.16015625,-18.5546875,-12.6953125
1756366724.636476,-41.50390625,-27.34375,-12.20703125,-26.3671875
1756366724.6402318,-104.98046875,-11.23046875,-16.6015625,-33.69140625
1756366724.6439874,-65.91796875,-6.34765625,-19.53125,-37.59765625
1756366724.647743,9.27734375,-23.92578125,-19.53125,-25.87890625
1756366724.6514988,-23.4375,-35.15625,-29.78515625,-25.87890625
1756366724.6552544,-95.703125,-29.296875,-28.3203125,-40.52734375
1756366724.65901,-128.90625,-17.578125,-21.97265625,-49.8046875
1756366724.6627655,-83.0078125,-24.90234375,-15.625,-44.43359375
1756366724.666521,-25.87890625,-17.08984375,-13.18359375,-37.109375
1756366724.6702769,-82.03125,-8.7890625,-14.6484375,-50.29296875
1756366724.6740324,-110.3515625,-8.30078125,-10.25390625,-52.734375
1756366724.6788611,-45.8984375,-4.39453125,-20.01953125,-40.0390625
1756366724.6836896,-15.13671875,-6.8359375,-25.390625,-30.2734375
1756366724.688518,-64.94140625,-19.53125,-22.94921875,-27.34375
1756366724.6933467,-117.67578125,-35.15625,-28.3203125,-44.921875
1756366724.6981754,-69.3359375,-40.52734375,-19.04296875,-47.36328125
1756366724.703004,-14.6484375,-36.1328125,-15.625,-26.3671875
1756366724.7078323,-38.0859375,-31.25,-20.99609375,-9.27734375
1756366724.712661,-95.21484375,-33.69140625,-21.484375,-19.04296875
1756366724.7174895,-76.66015625,-28.3203125,-25.390625,-30.2734375
1756366724.7223182,-27.34375,-24.90234375,-27.34375,-37.109375
1756366724.7271466,-40.52734375,-25.390625,-25.390625,-44.43359375
1756366724.7319753,-115.72265625,-33.69140625,-37.109375,-46.38671875
1756366724.7370389,-118.1640625,-40.52734375,-42.48046875,-51.7578125
1756366724.7421026,-52.734375,-38.57421875,-40.0390625,-53.22265625
1756366724.7471662,-46.875,-38.0859375,-39.0625,-51.7578125
1756366724.7522297,-104.98046875,-34.1796875,-33.203125,-57.6171875
1756366724.7572932,-129.8828125,-33.69140625,-32.2265625,-62.01171875
1756366724.7623568,-76.171875,-37.59765625,-40.0390625,-53.7109375
1756366724.7674203,-41.9921875,-35.64453125,-39.0625,-38.57421875
1756366724.772484,-79.58984375,-29.296875,-30.2734375,-43.45703125
1756366724.7775476,-130.859375,-27.83203125,-22.4609375,-48.828125
1756366724.7826114,-96.6796875,-30.76171875,-23.92578125,-54.6875
1756366724.787675,-31.25,-31.73828125,-28.80859375,-47.8515625
1756366724.7927384,-64.94140625,-36.1328125,-21.97265625,-34.1796875
1756366724.79534,-113.28125,-26.85546875,-16.6015625,-32.71484375
1756366724.7979414,-80.078125,-3.41796875,-10.7421875,-20.01953125
1756366724.8005428,-34.1796875,3.41796875,-3.41796875,-0.48828125
1756366724.8031445,-31.73828125,-3.90625,-6.8359375,2.44140625
1756366724.805746,-97.16796875,-16.6015625,-6.34765625,-26.3671875
1756366724.8083477,-114.74609375,-13.671875,-2.9296875,-37.59765625
1756366724.8109488,-33.69140625,-2.44140625,-9.27734375,-26.3671875
1756366724.8135505,5.859375,-6.34765625,-12.20703125,-27.34375
1756366724.816152,-57.12890625,-7.32421875,-7.32421875,-33.69140625
1756366724.8187535,-96.6796875,-4.39453125,-1.46484375,-49.31640625
1756366724.8213549,-43.45703125,-4.8828125,-7.8125,-44.921875
1756366724.8239565,-10.7421875,-4.8828125,-17.08984375,-31.73828125
1756366724.827712,-38.57421875,1.46484375,-11.71875,-16.6015625
1756366724.831468,-88.8671875,-4.39453125,-16.6015625,-21.97265625
1756366724.8352234,-55.6640625,-22.94921875,-10.25390625,-22.94921875
1756366724.838979,1.953125,-18.06640625,-1.953125,-5.859375
1756366724.8427348,-31.25,-13.18359375,-4.8828125,0.9765625
1756366724.8464904,-93.75,-16.6015625,-10.7421875,4.39453125
1756366724.850246,-81.0546875,-3.41796875,-3.41796875,-13.18359375
1756366724.8540018,-25.390625,9.27734375,10.7421875,4.39453125
1756366724.857757,-10.25390625,0.9765625,4.39453125,19.53125
1756366724.861513,-95.21484375,1.46484375,-4.8828125,-5.37109375
1756366724.8652687,-139.16015625,5.859375,-5.37109375,-16.6015625
1756366724.8690245,-41.015625,-3.41796875,-6.8359375,-3.90625
1756366724.8727715,-11.71875,-2.9296875,-7.32421875,-5.859375
1756366724.876519,-64.453125,-4.39453125,-9.765625,-17.578125
1756366724.8802662,-92.28515625,-12.6953125,-15.13671875,-26.3671875
1756366724.8840137,-80.078125,-18.5546875,-12.6953125,-27.34375
1756366724.887761,-29.78515625,-13.671875,-8.30078125,-21.97265625
1756366724.8915083,-50.78125,-8.30078125,-4.39453125,-21.484375
1756366724.8952556,-108.88671875,-9.27734375,-5.859375,-34.1796875
1756366724.899003,-74.21875,-12.6953125,-6.8359375,-14.16015625
1756366724.9027505,-23.4375,-15.625,-1.953125,0.0
1756366724.9064977,-62.5,-24.90234375,0.9765625,-24.4140625
1756366724.910245,-94.7265625,-23.92578125,-1.46484375,-31.25
1756366724.9139924,-93.75,-26.85546875,-2.9296875,-23.92578125
1756366724.9190536,-39.0625,-28.80859375,-4.39453125,-20.99609375
1756366724.9241145,-11.23046875,1.46484375,-6.8359375,-12.6953125
1756366724.9291754,-72.265625,2.44140625,-11.71875,-8.7890625
1756366724.9342363,-78.125,-8.7890625,-20.01953125,-27.34375
1756366724.9392977,-27.34375,-10.7421875,-17.578125,-33.203125
1756366724.9443586,-3.90625,-10.25390625,-10.7421875,-26.3671875
1756366724.9494195,-60.546875,-5.37109375,-15.625,-33.69140625
1756366724.9544806,-110.3515625,-3.90625,-21.484375,-19.53125
1756366724.9595418,-57.12890625,-14.16015625,-26.3671875,-26.3671875
1756366724.9646027,-20.01953125,-22.94921875,-41.9921875,-35.64453125
1756366724.9696636,-62.98828125,-27.83203125,-44.43359375,-25.390625
1756366724.9747248,-115.72265625,-21.97265625,-16.6015625,-52.24609375
1756366724.9771245,-88.37890625,-16.11328125,-20.99609375,-50.29296875
1756366724.979524,-23.4375,-23.92578125,-42.96875,-27.83203125
1756366724.981924,-25.87890625,-34.1796875,-49.31640625,-28.3203125
1756366724.9843235,-82.03125,-33.203125,-41.015625,-28.80859375
1756366724.9867234,-89.84375,-16.6015625,-26.3671875,-42.96875
1756366724.989123,-46.875,-11.23046875,-6.34765625,-45.41015625
1756366724.991523,-24.4140625,-7.8125,4.39453125,-31.25
1756366724.9939227,-64.453125,-5.859375,4.39453125,-23.4375
1756366724.9963224,-85.9375,-10.25390625,6.34765625,-8.30078125
1756366724.998722,-0.48828125,-1.953125,10.7421875,-15.13671875
1756366725.001122,21.484375,2.44140625,8.30078125,-6.34765625
1756366725.0035217,-62.98828125,-7.8125,-5.37109375,-4.39453125
1756366725.0084896,-87.40234375,-11.71875,-5.37109375,-31.73828125
1756366725.0134578,-28.3203125,-6.34765625,-10.7421875,-10.25390625
1756366725.0184257,12.20703125,-6.34765625,-16.6015625,-17.08984375
1756366725.0233936,-39.55078125,3.90625,-8.7890625,-40.52734375
1756366725.0283618,-95.21484375,-1.46484375,-4.39453125,-29.78515625
1756366725.0333295,-56.15234375,-13.671875,-13.671875,-31.25
1756366725.0382977,6.8359375,-4.39453125,-7.8125,-26.3671875
1756366725.0432658,-6.8359375,-1.46484375,-0.9765625,-15.625
1756366725.0482335,-71.2890625,-7.32421875,-10.25390625,-24.90234375
1756366725.0532017,-75.68359375,-12.20703125,-5.859375,-29.296875
1756366725.0581698,4.8828125,-19.53125,2.44140625,-28.80859375
1756366725.0631378,24.4140625,-16.6015625,0.0,-10.25390625
1756366725.0668478,-62.5,3.41796875,2.9296875,0.0
1756366725.0705578,-75.68359375,12.20703125,-0.9765625,-3.41796875
1756366725.074268,-40.0390625,1.953125,-10.7421875,-3.90625
1756366725.077978,-13.18359375,-0.9765625,-13.671875,-1.953125
1756366725.081688,-15.625,10.25390625,-7.32421875,-16.11328125
1756366725.085398,-57.6171875,8.30078125,-6.34765625,-27.83203125
1756366725.089108,-28.80859375,-0.9765625,-10.25390625,-17.08984375
1756366725.092818,6.8359375,-1.46484375,-2.9296875,-7.32421875
1756366725.096528,-14.16015625,-12.6953125,2.44140625,15.13671875
1756366725.100238,-62.98828125,-17.08984375,-9.27734375,-13.671875
1756366725.103948,-71.2890625,-1.953125,-17.08984375,-43.45703125
1756366725.107658,-10.25390625,10.25390625,-7.32421875,-24.4140625
1756366725.1116345,5.859375,13.18359375,-2.9296875,-17.578125
1756366725.11561,-59.5703125,11.23046875,2.9296875,-32.2265625
1756366725.1195862,-88.8671875,4.39453125,3.90625,-35.64453125
1756366725.1235623,-11.71875,-4.8828125,-7.8125,-20.5078125
1756366725.1275384,20.99609375,-6.8359375,-3.90625,-20.99609375
1756366725.1315143,-52.734375,-3.90625,-6.8359375,-23.4375
1756366725.1354904,-87.890625,-11.23046875,-12.6953125,-33.69140625
1756366725.1394663,-25.390625,-4.8828125,-1.953125,-33.203125
1756366725.1434426,8.30078125,-6.34765625,-10.25390625,-43.45703125
1756366725.1474185,-38.0859375,-3.90625,-11.23046875,-39.0625
1756366725.1513946,-70.3125,17.578125,-0.48828125,-20.5078125
1756366725.1553707,-40.52734375,11.23046875,-8.30078125,-17.08984375
1756366725.1603107,20.5078125,9.27734375,-11.71875,-13.18359375
1756366725.165251,-7.32421875,5.859375,-18.5546875,-24.90234375
1756366725.170191,-71.77734375,-6.8359375,-18.5546875,-40.52734375
1756366725.175131,-63.96484375,-6.8359375,-12.6953125,-35.15625
1756366725.1800714,-2.9296875,-8.7890625,-12.20703125,-16.11328125
1756366725.1850114,8.7890625,-7.32421875,-25.390625,-11.23046875
1756366725.1899514,-62.5,-13.18359375,-30.76171875,-25.390625
1756366725.1948917,-91.796875,-14.6484375,-24.4140625,-52.24609375
1756366725.1998315,-19.53125,-0.9765625,-21.484375,-40.0390625
1756366725.2047718,-13.18359375,-3.41796875,-23.4375,-17.08984375
1756366725.209712,-95.703125,-3.90625,-27.34375,-35.15625
1756366725.214652,-104.00390625,-5.37109375,-29.296875,-42.96875
1756366725.2183883,-35.15625,-7.32421875,-29.296875,-39.0625
1756366725.2221246,19.53125,-12.6953125,-29.296875,-35.15625
1756366725.225861,-20.99609375,-22.94921875,-31.73828125,-38.57421875
1756366725.229597,-86.42578125,-9.27734375,-28.80859375,-46.38671875
1756366725.2333336,-57.12890625,9.27734375,-20.01953125,-45.41015625
1756366725.2370698,8.7890625,1.953125,-17.08984375,-45.41015625
1756366725.240806,-6.8359375,1.46484375,-15.13671875,-42.96875
1756366725.2445424,-91.796875,-1.953125,-18.5546875,-35.64453125
1756366725.2482786,-83.49609375,-6.8359375,-20.99609375,-33.69140625
1756366725.252015,4.8828125,-1.46484375,-19.53125,-32.2265625
1756366725.2557514,14.6484375,-4.39453125,-9.765625,-31.73828125
1756366725.2594876,-62.5,-6.8359375,-6.8359375,-41.50390625
1756366725.26318,-83.984375,-1.953125,-19.04296875,-31.25
1756366725.2668724,-7.32421875,-0.48828125,-14.6484375,-1.953125
1756366725.2705648,23.4375,3.41796875,-5.37109375,5.859375
1756366725.2742572,-19.53125,0.48828125,-13.671875,-4.8828125
1756366725.2779496,-56.15234375,-13.671875,-20.99609375,-14.6484375
1756366725.281642,-32.71484375,-5.37109375,-27.83203125,-30.76171875
1756366725.285334,4.39453125,7.8125,-26.85546875,-38.0859375
1756366725.2890265,-17.578125,3.41796875,-11.23046875,-20.99609375
1756366725.292719,-42.96875,-4.8828125,-7.32421875,-17.08984375
1756366725.2964113,-39.55078125,-15.625,-13.18359375,-36.62109375
1756366725.3001037,9.27734375,-18.06640625,-7.32421875,-31.25
1756366725.303796,1.953125,-1.46484375,-6.34765625,-30.2734375
1756366725.3063123,-80.078125,1.46484375,-16.6015625,-23.4375
1756366725.3088286,-101.07421875,8.7890625,-12.6953125,-36.62109375
1756366725.3113449,-28.3203125,13.18359375,-12.6953125,-45.41015625
1756366725.3138611,18.06640625,-4.39453125,-20.99609375,-32.2265625
1756366725.3163774,-55.17578125,-13.18359375,-15.625,-53.22265625
1756366725.3188937,-90.33203125,-15.625,-18.5546875,-60.546875
1756366725.32141,-19.53125,-13.18359375,-21.484375,-45.41015625
1756366725.3239262,17.578125,-24.90234375,-27.34375,-48.828125
1756366725.3264425,-37.109375,-22.94921875,-29.78515625,-45.41015625
1756366725.3289587,-75.68359375,-4.8828125,-17.08984375,-30.76171875
1756366725.331475,-38.57421875,-12.20703125,-12.20703125,-21.484375
1756366725.3339913,-12.6953125,-26.3671875,-8.7890625,-27.83203125
1756366725.33786,-28.80859375,-3.90625,-14.6484375,-25.390625
1756366725.3417292,-62.98828125,1.46484375,-17.578125,-7.8125
1756366725.345598,-39.55078125,-5.37109375,-6.8359375,-1.953125
1756366725.349467,30.2734375,0.48828125,1.46484375,-6.8359375
1756366725.353336,11.71875,0.0,-9.27734375,-26.85546875
1756366725.357205,-64.453125,0.9765625,-23.92578125,-43.9453125
1756366725.3610735,-91.796875,11.23046875,-17.578125,-37.109375
1756366725.3649426,0.48828125,1.46484375,-0.48828125,-5.859375
1756366725.3688116,40.0390625,-8.7890625,1.953125,7.8125
1756366725.3726804,-48.33984375,-2.44140625,-4.39453125,-1.953125
1756366725.3765495,-72.75390625,-0.9765625,12.20703125,-19.04296875
1756366725.3804183,-12.20703125,4.8828125,17.08984375,-27.34375
1756366725.3841054,31.25,-0.48828125,12.6953125,-28.3203125
1756366725.3877926,-17.08984375,-7.8125,20.5078125,-32.2265625
1756366725.39148,-71.2890625,-2.44140625,15.625,-26.85546875
1756366725.395167,-30.2734375,6.34765625,5.37109375,-25.87890625
1756366725.3988545,29.78515625,5.859375,14.6484375,-22.94921875
1756366725.4025416,-3.90625,7.32421875,17.08984375,-13.18359375
1756366725.4062288,-65.91796875,5.37109375,17.578125,-13.671875
1756366725.409916,-41.015625,-2.9296875,20.99609375,-13.18359375
1756366725.413603,10.25390625,3.41796875,24.90234375,-6.8359375
1756366725.4172902,3.90625,14.6484375,20.99609375,-5.37109375
1756366725.4209776,-39.0625,11.23046875,12.20703125,-13.671875
1756366725.4246647,-44.43359375,8.30078125,13.671875,-14.16015625
1756366725.4295382,24.90234375,4.8828125,20.5078125,-10.25390625
1756366725.4344118,59.08203125,6.34765625,3.90625,-8.7890625
1756366725.4392853,-15.13671875,-1.953125,-0.9765625,-11.71875
1756366725.444159,-62.01171875,-6.34765625,18.06640625,-19.53125
1756366725.4490323,-0.9765625,-6.8359375,18.5546875,-20.5078125
1756366725.453906,52.734375,-8.30078125,8.30078125,-15.625
1756366725.4587796,16.6015625,2.44140625,1.953125,-10.7421875
1756366725.463653,-45.8984375,10.7421875,4.8828125,-27.83203125
1756366725.4685268,-30.76171875,15.13671875,14.16015625,-31.25
1756366725.4734004,29.296875,20.01953125,9.27734375,-13.18359375
1756366725.478274,10.7421875,21.97265625,-6.34765625,-22.4609375
1756366725.4831474,-68.84765625,20.99609375,-6.8359375,-41.9921875
1756366725.4880376,-53.22265625,11.23046875,8.30078125,-35.15625
1756366725.492928,20.99609375,14.6484375,13.671875,-11.71875
1756366725.4978182,28.80859375,-0.9765625,-7.32421875,-16.6015625
1756366725.5027084,-33.203125,-22.4609375,-5.859375,-23.4375
1756366725.5075989,-44.921875,2.9296875,17.578125,-22.94921875
1756366725.512489,4.39453125,20.5078125,24.90234375,-9.765625
1756366725.5173793,23.4375,24.4140625,18.5546875,-2.44140625
1756366725.5222695,-16.6015625,18.06640625,11.23046875,-23.4375
1756366725.52716,-50.29296875,19.04296875,10.25390625,-24.90234375
1756366725.53205,-2.44140625,18.5546875,9.27734375,-8.30078125
1756366725.5369406,46.875,17.578125,10.25390625,-1.953125
1756366725.5418308,7.8125,13.671875,8.30078125,-10.7421875
1756366725.5445063,-48.828125,9.765625,-3.41796875,-21.484375
1756366725.5471826,-23.4375,9.27734375,-1.953125,-14.6484375
1756366725.5498583,37.59765625,4.8828125,9.765625,-6.8359375
1756366725.552534,12.20703125,6.8359375,14.6484375,-28.3203125
1756366725.55521,-45.41015625,-0.48828125,-0.48828125,-38.0859375
1756366725.5578856,-53.7109375,-13.18359375,0.48828125,-35.64453125
1756366725.5605617,-18.06640625,0.48828125,12.20703125,-27.83203125
1756366725.5632374,17.578125,13.671875,-0.48828125,-20.5078125
1756366725.5659132,-46.875,11.71875,-1.46484375,-24.4140625
1756366725.5685892,-73.73046875,10.25390625,1.46484375,-27.34375
1756366725.571265,12.20703125,11.71875,-1.46484375,-41.9921875
1756366725.5739408,54.19921875,12.6953125,-3.41796875,-41.50390625
1756366725.5776954,-20.5078125,5.859375,-3.90625,-30.76171875
1756366725.58145,-68.84765625,3.41796875,0.0,-21.484375
1756366725.5852044,-34.1796875,3.90625,10.7421875,-4.8828125
1756366725.588959,0.48828125,5.859375,16.11328125,-11.71875
1756366725.5927136,-22.94921875,5.859375,13.671875,-26.85546875
1756366725.596468,-96.19140625,8.7890625,11.71875,-25.390625
1756366725.6002226,-74.70703125,7.8125,15.13671875,-27.83203125
1756366725.6039772,21.97265625,3.41796875,21.97265625,-16.11328125
1756366725.6077318,34.1796875,4.8828125,9.765625,-10.25390625
1756366725.6114864,-32.2265625,10.25390625,5.859375,-33.203125
1756366725.6152408,-61.03515625,11.71875,13.671875,-29.78515625
1756366725.6189954,13.18359375,18.06640625,6.8359375,-9.27734375
1756366725.6227372,63.96484375,19.53125,4.39453125,-11.71875
1756366725.6264791,-1.953125,-2.44140625,1.953125,-31.25
1756366725.630221,-49.31640625,-10.25390625,-1.953125,-39.55078125
1756366725.6339629,-9.765625,-0.9765625,-3.41796875,-29.78515625
1756366725.6377046,6.34765625,10.7421875,3.41796875,-35.15625
1756366725.6414466,-45.41015625,8.30078125,2.9296875,-34.66796875
1756366725.6451883,-85.44921875,-5.859375,2.44140625,-35.15625
1756366725.64893,-36.62109375,-3.90625,17.08984375,-38.0859375
1756366725.652672,-0.48828125,-6.34765625,1.46484375,-33.203125
1756366725.6564138,-36.1328125,0.9765625,-6.8359375,-45.8984375
1756366725.6601558,-82.51953125,3.41796875,-1.953125,-58.10546875
1756366725.6638975,-101.07421875,3.41796875,11.71875,-39.55078125
1756366725.6677766,-52.24609375,11.23046875,19.53125,-30.2734375
1756366725.6716557,-28.3203125,5.37109375,12.20703125,-48.33984375
1756366725.6755345,-72.265625,4.8828125,4.8828125,-46.875
1756366725.6794136,-97.16796875,2.9296875,-6.34765625,-38.0859375
1756366725.6832926,-29.78515625,-2.44140625,1.953125,-42.96875
1756366725.6871717,0.0,-6.34765625,7.8125,-41.50390625
1756366725.6910503,-79.58984375,-7.32421875,-3.41796875,-40.52734375
1756366725.6949296,-123.046875,-8.7890625,-8.7890625,-45.8984375
1756366725.698809,-56.640625,1.46484375,-9.765625,-54.6875
1756366725.7026875,14.16015625,-4.8828125,-12.6953125,-59.5703125
1756366725.7065666,-24.4140625,-24.4140625,-1.46484375,-54.6875
1756366725.7104456,-85.9375,-23.4375,-1.46484375,-37.59765625
1756366725.7163882,-47.8515625,-14.16015625,-12.20703125,-36.62109375
1756366725.7223308,0.48828125,-11.71875,-14.6484375,-51.7578125
1756366725.7282734,-49.8046875,-14.6484375,-15.625,-42.48046875
1756366725.7342155,-117.67578125,-17.08984375,-8.7890625,-40.52734375
1756366725.7401583,-92.7734375,-27.83203125,-16.11328125,-61.03515625
1756366725.746101,-29.78515625,-33.69140625,-25.390625,-66.40625
1756366725.7520435,-37.109375,-20.99609375,-16.6015625,-51.7578125
1756366725.757986,-85.9375,-19.04296875,-12.6953125,-41.015625
1756366725.7639284,-106.4453125,-16.6015625,-14.16015625,-53.22265625
1756366725.769871,-56.640625,-7.32421875,-8.7890625,-63.96484375
1756366725.7758136,-39.0625,-9.765625,-5.859375,-52.24609375
1756366725.7817562,-67.87109375,-12.6953125,-8.7890625,-42.96875
1756366725.7831964,-96.6796875,-9.765625,-15.13671875,-59.5703125
1756366725.7846365,-66.40625,1.46484375,-11.71875,-54.19921875
1756366725.7860768,-18.5546875,0.9765625,-1.953125,-33.69140625
1756366725.787517,-50.78125,-7.8125,4.8828125,-43.9453125
1756366725.788957,-88.8671875,-15.13671875,6.34765625,-38.0859375
1756366725.7903974,-73.2421875,-1.953125,7.8125,-38.0859375
1756366725.7918377,-16.6015625,-1.953125,9.765625,-37.109375
1756366725.7932775,-11.23046875,-18.5546875,12.20703125,-27.34375
1756366725.794718,-82.03125,-15.13671875,10.25390625,-38.57421875
1756366725.7961583,-70.3125,-12.6953125,1.953125,-22.4609375
1756366725.7975984,24.4140625,-13.671875,5.37109375,-12.20703125
1756366725.7990386,19.53125,-3.90625,14.6484375,-26.85546875
1756366725.8039813,-59.08203125,2.44140625,18.06640625,-24.90234375
1756366725.8089235,-49.31640625,-3.41796875,14.16015625,-11.71875
1756366725.813866,26.3671875,3.90625,16.11328125,6.8359375
1756366725.8188088,44.43359375,23.4375,18.06640625,8.30078125
1756366725.8237514,-32.71484375,31.25,16.6015625,-14.6484375
1756366725.828694,-60.05859375,29.78515625,18.5546875,-9.765625
1756366725.8336363,-2.44140625,23.92578125,26.3671875,-0.48828125
1756366725.838579,27.34375,16.6015625,32.71484375,-10.7421875
1756366725.8435216,-5.859375,17.578125,24.90234375,-9.765625
1756366725.848464,-60.05859375,19.04296875,17.08984375,-7.32421875
1756366725.8534064,-31.25,20.5078125,18.5546875,-17.08984375
1756366725.858349,37.109375,20.5078125,22.4609375,-7.32421875
1756366725.8620918,7.8125,11.71875,23.92578125,-7.32421875
1756366725.8658347,-81.0546875,1.953125,13.18359375,-33.69140625
1756366725.8695774,-83.49609375,2.9296875,2.44140625,-30.2734375
1756366725.8733203,0.48828125,-1.46484375,4.39453125,-14.16015625
1756366725.877063,32.71484375,-0.48828125,4.39453125,-20.01953125
1756366725.880806,-39.0625,7.32421875,0.48828125,-30.76171875
1756366725.884549,-89.35546875,-0.9765625,-6.34765625,-22.94921875
1756366725.8882914,-21.484375,-10.25390625,-8.30078125,-25.390625
1756366725.8920343,39.55078125,0.48828125,-2.9296875,-29.296875
1756366725.895777,-6.8359375,10.7421875,0.0,-15.625
1756366725.89952,-45.41015625,-0.9765625,4.39453125,-2.44140625
1756366725.9032626,-26.3671875,-8.30078125,5.37109375,-15.13671875
1756366725.907131,-5.859375,9.27734375,-4.8828125,-17.578125
1756366725.910999,-3.41796875,16.6015625,-2.9296875,-6.8359375
1756366725.9148674,-40.52734375,12.20703125,7.32421875,-7.8125
1756366725.9187355,-32.71484375,17.08984375,8.30078125,-19.53125
1756366725.9226038,31.73828125,21.484375,3.41796875,-7.8125
1756366725.9264722,35.64453125,9.27734375,-5.37109375,19.53125
1756366725.9303403,-31.73828125,-0.48828125,-3.41796875,9.27734375
1756366725.9342086,-66.40625,9.765625,4.8828125,-19.53125
1756366725.9380767,-30.2734375,5.37109375,-1.953125,-29.78515625
1756366725.941945,18.06640625,-0.48828125,-4.8828125,-15.625
1756366725.9458132,-12.6953125,6.34765625,-0.48828125,-34.66796875
1756366725.9496815,-70.80078125,14.6484375,0.48828125,-34.66796875
1756366725.9533148,-21.484375,2.9296875,-2.44140625,-36.62109375
1756366725.9569485,31.25,-22.4609375,-7.32421875,-37.59765625
1756366725.9605815,-23.4375,-9.27734375,10.7421875,-23.92578125
1756366725.9642148,-68.359375,7.32421875,17.08984375,-27.83203125
1756366725.9678483,-29.296875,-1.46484375,-4.39453125,-12.6953125
1756366725.9714816,22.4609375,-8.30078125,-11.71875,-17.578125
1756366725.9751148,-5.37109375,-3.90625,-5.37109375,-22.94921875
1756366725.9787483,-66.89453125,6.8359375,-0.48828125,-13.671875
1756366725.9823816,-39.55078125,-3.41796875,-5.37109375,1.46484375
1756366725.9860148,11.23046875,-8.30078125,-7.32421875,5.859375
1756366725.9896483,13.671875,2.44140625,-1.953125,-9.765625
1756366725.9932816,-47.36328125,4.8828125,1.953125,-14.6484375
1756366725.9970677,-68.359375,3.41796875,1.953125,-14.6484375
1756366726.0008535,-14.6484375,0.48828125,-2.9296875,-17.08984375
1756366726.0046396,-8.7890625,4.39453125,-12.20703125,-7.8125
1756366726.0084257,-41.9921875,3.90625,-6.34765625,-21.484375
1756366726.0122118,-68.359375,-3.90625,4.8828125,-25.390625
1756366726.015998,-7.8125,-5.37109375,-1.953125,-15.13671875
1756366726.0197835,42.96875,-2.9296875,-9.27734375,-20.5078125
1756366726.0235698,-22.4609375,0.9765625,-8.7890625,-23.4375
1756366726.027356,-77.63671875,5.859375,-7.32421875,-33.69140625
1756366726.0311418,-61.5234375,6.8359375,-3.90625,-35.15625
1756366726.0349278,-9.765625,8.7890625,5.37109375,-21.97265625
1756366726.038714,-20.01953125,11.23046875,3.41796875,-26.85546875
1756366726.042491,-57.12890625,6.34765625,11.23046875,-27.83203125
1756366726.0462675,-31.25,-2.9296875,18.5546875,-21.97265625
1756366726.0500443,44.921875,-7.32421875,10.25390625,-7.32421875
1756366726.0538216,30.76171875,18.06640625,19.53125,17.08984375
1756366726.0575986,-52.734375,43.45703125,26.3671875,16.6015625
1756366726.0613754,-60.05859375,38.57421875,21.484375,-10.25390625
1756366726.0651522,19.53125,36.62109375,25.390625,-8.7890625
1756366726.0689292,68.84765625,47.36328125,24.4140625,18.06640625
1756366726.0727062,-5.37109375,37.59765625,22.94921875,9.765625
1756366726.076483,-46.38671875,21.97265625,31.25,-7.32421875
1756366726.0802598,-19.04296875,21.97265625,20.5078125,-0.9765625
1756366726.0840368,14.16015625,23.4375,18.5546875,-1.46484375
1756366726.0890348,-2.9296875,13.18359375,15.13671875,5.37109375
1756366726.0940328,-45.41015625,8.30078125,15.625,7.8125
1756366726.0990307,-32.71484375,7.32421875,20.5078125,-7.8125
1756366726.1040287,24.90234375,1.953125,11.23046875,-10.25390625
1756366726.109027,12.20703125,-2.9296875,0.9765625,-10.25390625
1756366726.1140246,-70.80078125,-7.8125,-9.765625,-16.11328125
1756366726.1190228,-79.58984375,1.46484375,-14.6484375,-30.2734375
1756366726.1240208,-14.6484375,10.7421875,-9.27734375,-20.01953125
1756366726.1290188,16.6015625,7.32421875,-0.48828125,4.39453125
1756366726.1340168,-26.85546875,3.90625,4.8828125,0.48828125
1756366726.1390147,-64.453125,-0.9765625,1.953125,-21.97265625
1756366726.1440127,-35.15625,-3.90625,2.9296875,-13.18359375
1756366726.1466265,14.6484375,-3.90625,5.37109375,0.9765625
1756366726.1492405,-23.4375,-9.27734375,-3.41796875,-28.80859375
1756366726.151854,-83.0078125,0.0,-5.37109375,-40.0390625
1756366726.1544676,-35.15625,11.71875,-2.44140625,-18.06640625
1756366726.1570814,35.15625,13.671875,5.859375,0.48828125
1756366726.1596951,9.27734375,4.39453125,7.8125,6.34765625
1756366726.162309,-50.78125,6.34765625,5.37109375,-12.6953125
1756366726.1649227,-44.921875,16.6015625,9.27734375,-17.08984375
1756366726.1675365,8.30078125,15.13671875,11.71875,5.859375
1756366726.17015,19.04296875,9.765625,15.625,5.37109375
1756366726.1727638,-40.52734375,11.71875,12.6953125,3.90625
1756366726.1753776,-64.453125,13.671875,10.7421875,-1.953125
1756366726.180193,3.90625,14.6484375,15.625,-14.6484375
1756366726.1850083,36.1328125,22.94921875,18.06640625,-8.30078125
1756366726.1898236,-29.296875,18.5546875,15.13671875,-0.9765625
1756366726.1946387,-94.23828125,4.39453125,18.06640625,-23.4375
1756366726.199454,-41.015625,4.39453125,20.01953125,-37.59765625
1756366726.2042694,5.859375,1.953125,17.08984375,-24.4140625
1756366726.2090847,-27.34375,2.44140625,17.08984375,-11.23046875
1756366726.2139,-86.9140625,9.765625,16.11328125,-6.34765625
1756366726.2187152,-64.453125,7.8125,23.92578125,-15.13671875
1756366726.2235303,29.78515625,4.39453125,29.296875,-9.27734375
1756366726.228346,7.32421875,7.8125,22.4609375,-2.9296875
1756366726.2331612,-65.91796875,2.44140625,17.08984375,-20.01953125
1756366726.2369246,-53.7109375,1.953125,19.04296875,-30.76171875
1756366726.2406883,7.32421875,4.8828125,18.5546875,-16.11328125
1756366726.2444518,31.73828125,-0.9765625,21.97265625,4.8828125
1756366726.2482154,-6.34765625,5.37109375,33.203125,13.18359375
1756366726.2519789,-19.04296875,5.37109375,35.64453125,16.11328125
1756366726.2557423,20.5078125,11.71875,26.85546875,11.71875
1756366726.259506,38.0859375,-2.44140625,31.73828125,22.4609375
1756366726.2632694,6.8359375,-21.97265625,34.66796875,9.27734375
1756366726.267033,-24.4140625,6.34765625,26.85546875,-7.8125
1756366726.2707963,18.5546875,22.4609375,26.85546875,19.04296875
1756366726.2745602,43.9453125,24.4140625,29.78515625,37.59765625
1756366726.2783237,-27.83203125,35.64453125,38.57421875,20.5078125
1756366726.2832773,-56.640625,33.203125,35.64453125,6.34765625
1756366726.288231,-9.765625,16.6015625,28.80859375,10.7421875
1756366726.2931845,49.31640625,7.8125,25.87890625,19.53125
1756366726.298138,36.1328125,12.6953125,21.97265625,5.37109375
1756366726.3030918,-64.453125,16.11328125,19.04296875,-13.18359375
1756366726.3080454,-93.26171875,13.671875,11.23046875,-13.671875
1756366726.312999,19.53125,17.578125,13.671875,-11.23046875
1756366726.3179526,27.34375,20.01953125,15.625,-13.671875
1756366726.3229065,-53.7109375,23.4375,14.6484375,-12.6953125
1756366726.32786,-58.59375,14.16015625,21.484375,-17.578125
1756366726.3328135,-0.9765625,4.39453125,24.4140625,-26.3671875
1756366726.3377671,38.57421875,12.20703125,19.53125,-20.99609375
1756366726.3403745,-3.41796875,9.27734375,14.16015625,-18.5546875
1756366726.3429816,-46.875,8.7890625,10.25390625,-12.6953125
1756366726.3455887,-26.85546875,13.18359375,8.7890625,0.9765625
1756366726.348196,18.06640625,4.8828125,0.9765625,-3.41796875
1756366726.3508034,5.859375,-2.44140625,2.44140625,-2.44140625
1756366726.3534105,-55.6640625,-5.859375,11.23046875,-10.7421875
1756366726.3560176,-42.48046875,5.859375,10.7421875,-16.6015625
1756366726.358625,15.13671875,3.41796875,-2.44140625,1.46484375
1756366726.3612325,1.46484375,-11.71875,-0.9765625,15.13671875
1756366726.3638394,-59.5703125,0.48828125,13.671875,2.44140625
1756366726.3664465,-58.10546875,6.34765625,14.16015625,-0.48828125
1756366726.3690538,17.08984375,5.859375,17.578125,1.953125
1756366726.3729146,30.76171875,12.6953125,17.08984375,-2.9296875
1756366726.3767753,-46.38671875,12.6953125,0.48828125,5.859375
1756366726.3806355,-83.49609375,4.39453125,-0.48828125,-6.34765625
1756366726.3844965,3.41796875,-0.48828125,2.9296875,-16.11328125
1756366726.3883572,39.55078125,0.0,-7.32421875,-13.671875
1756366726.392218,-41.9921875,-5.37109375,-6.34765625,-13.671875
1756366726.3960786,-70.80078125,0.9765625,-0.48828125,-23.92578125
1756366726.3999393,-39.0625,7.8125,-1.953125,0.48828125
1756366726.4038,-5.37109375,6.34765625,0.0,3.90625
1756366726.4076605,-34.66796875,-5.859375,-2.44140625,-30.2734375
1756366726.4115212,-86.9140625,-15.625,-3.41796875,-30.2734375
1756366726.415382,-79.1015625,-8.7890625,-5.859375,-30.2734375
1756366726.419001,-25.87890625,-2.9296875,-2.44140625,-21.97265625
1756366726.4226208,-23.4375,1.953125,6.34765625,-8.30078125
1756366726.42624,-70.3125,2.44140625,7.8125,-18.5546875
1756366726.4298594,-87.890625,0.48828125,8.7890625,-28.3203125
1756366726.4334788,-23.4375,-10.25390625,4.39453125,-12.20703125
1756366726.4370985,38.57421875,-5.37109375,2.44140625,-0.48828125
1756366726.4407177,-5.37109375,7.8125,0.48828125,2.44140625
1756366726.4443371,-20.5078125,0.48828125,-1.46484375,1.953125
1756366726.4479566,38.0859375,6.34765625,-0.9765625,12.20703125
1756366726.4515758,69.82421875,5.37109375,0.0,20.99609375
1756366726.4551952,23.92578125,2.9296875,-2.44140625,16.6015625
1756366726.4588146,-39.55078125,1.953125,-5.859375,0.48828125
1756366726.4638157,-45.41015625,-10.7421875,-7.32421875,-13.18359375
1756366726.468817,13.18359375,-4.39453125,-7.32421875,6.34765625
1756366726.473818,8.30078125,-7.8125,-5.37109375,18.5546875
1756366726.4788194,-60.546875,-15.13671875,-1.46484375,3.41796875
1756366726.4838204,-46.875,-4.8828125,0.0,1.46484375
1756366726.4888215,17.578125,3.90625,1.46484375,1.953125
1756366726.4938228,0.9765625,-5.37109375,3.41796875,11.71875
1756366726.498824,-76.66015625,-8.7890625,3.90625,24.90234375
1756366726.5038252,-83.0078125,2.44140625,2.44140625,-3.41796875
1756366726.5088265,-8.30078125,1.46484375,0.0,-21.484375
1756366726.5138276,6.34765625,3.41796875,0.0,-4.8828125
1756366726.5188286,-41.015625,3.90625,5.859375,-2.44140625
1756366726.52135,-53.7109375,-16.11328125,5.37109375,-31.73828125
1756366726.5238717,-38.0859375,-16.11328125,-1.46484375,-34.1796875
1756366726.5263932,-13.671875,2.9296875,-8.30078125,-29.296875
1756366726.5289147,-54.6875,2.44140625,-10.25390625,-49.8046875
1756366726.5314362,-108.88671875,-0.9765625,-11.23046875,-41.015625
1756366726.5339575,-59.5703125,-3.90625,-12.6953125,-18.5546875
1756366726.5364792,0.48828125,5.37109375,-9.765625,-18.06640625
1756366726.5390007,-35.15625,9.765625,0.0,-21.97265625
1756366726.5415225,-100.09765625,0.9765625,2.44140625,-31.25
1756366726.5440438,-70.80078125,0.0,-2.9296875,-39.55078125
1756366726.5465653,13.671875,-4.39453125,2.9296875,-10.7421875
1756366726.5490868,0.9765625,-8.30078125,4.39453125,0.0
1756366726.5540257,-60.05859375,-4.8828125,0.9765625,-17.08984375
1756366726.5589645,-65.4296875,1.46484375,6.34765625,-17.08984375
1756366726.563903,-24.90234375,0.0,5.37109375,-7.8125
1756366726.568842,25.390625,-4.39453125,-3.90625,0.9765625
1756366726.5737808,-8.30078125,-22.4609375,0.48828125,7.8125
1756366726.5787196,-68.84765625,-20.99609375,0.0,-10.7421875
1756366726.5836585,-67.87109375,-7.8125,-3.90625,-29.78515625
1756366726.5885973,-9.27734375,-8.7890625,-7.32421875,-38.57421875
1756366726.593536,-25.390625,-8.7890625,-16.11328125,-32.2265625
1756366726.5984747,-71.2890625,-7.8125,-15.625,-20.01953125
1756366726.6034136,-38.57421875,-9.27734375,-8.7890625,-26.85546875
1756366726.6083524,13.671875,-13.18359375,-4.39453125,-30.2734375
1756366726.6120472,-22.4609375,-10.25390625,-13.671875,-35.15625
1756366726.615742,-107.421875,-6.8359375,-18.5546875,-38.0859375
1756366726.6194367,-95.21484375,-12.6953125,-14.16015625,-16.11328125
1756366726.6231315,-20.99609375,-15.625,-7.32421875,-6.8359375
1756366726.6268263,5.37109375,-17.08984375,-9.765625,-13.18359375
1756366726.630521,-40.0390625,-11.71875,-16.6015625,-8.7890625
1756366726.6342158,-70.3125,-21.484375,-13.18359375,-8.30078125
1756366726.6379106,-20.5078125,-49.8046875,-6.34765625,-13.18359375
1756366726.6416054,24.4140625,-37.59765625,-4.39453125,-4.8828125
1756366726.6453,-15.625,-15.625,-2.44140625,4.39453125
1756366726.648995,-70.80078125,-11.71875,-0.48828125,-8.7890625
1756366726.6526897,-43.9453125,0.48828125,-11.23046875,-20.01953125
1756366726.656534,0.9765625,5.859375,-13.671875,-4.8828125
1756366726.6603782,-14.6484375,0.48828125,-7.8125,-6.34765625
1756366726.6642222,-49.8046875,-1.46484375,-3.90625,-26.3671875
1756366726.6680665,-32.71484375,-5.37109375,-1.46484375,-34.1796875
1756366726.6719108,-0.9765625,-7.32421875,-4.39453125,-15.625
1756366726.675755,-18.06640625,-6.8359375,-6.34765625,-0.9765625
1756366726.6795993,-73.73046875,-16.6015625,-8.7890625,-20.5078125
1756366726.6834435,-83.49609375,-19.53125,-9.27734375,-35.64453125
1756366726.6872878,-22.94921875,-13.671875,-5.859375,-31.25
1756366726.6911318,1.46484375,-7.8125,-3.90625,-11.71875
1756366726.694976,-54.19921875,-7.8125,-6.8359375,-19.04296875
1756366726.6988204,-87.890625,-9.27734375,-0.9765625,-34.66796875
1756366726.7025938,-51.7578125,-0.48828125,-3.41796875,-29.296875
1756366726.7063673,2.44140625,-12.20703125,-3.41796875,-13.671875
1756366726.7101407,-36.1328125,-37.59765625,-2.9296875,-19.53125
1756366726.7139142,-89.35546875,-29.296875,-3.41796875,-30.2734375
1756366726.7176876,-52.24609375,-28.80859375,-0.48828125,-17.08984375
1756366726.721461,4.8828125,-25.87890625,-2.44140625,-9.765625
1756366726.7252345,-42.48046875,-0.48828125,-0.9765625,-31.73828125
1756366726.729008,-98.6328125,1.46484375,-3.41796875,-48.828125
1756366726.7327814,-55.6640625,-10.7421875,-9.27734375,-12.20703125
1756366726.7365549,2.44140625,-18.5546875,-7.32421875,-6.8359375
1756366726.7403283,3.41796875,-11.23046875,-7.8125,-26.85546875
1756366726.7441018,-66.40625,-6.8359375,-11.23046875,-22.4609375
1756366726.7489374,-67.3828125,-11.23046875,-2.9296875,-29.296875
1756366726.753773,-2.44140625,-6.8359375,-5.859375,-20.99609375
1756366726.7586088,-5.859375,-7.8125,-11.71875,-14.16015625
1756366726.7634444,-72.265625,-7.8125,-4.8828125,-29.296875
1756366726.76828,-87.40234375,-4.39453125,-1.46484375,-43.45703125
1756366726.7731156,-21.97265625,-5.859375,-0.9765625,-20.5078125
1756366726.7779512,9.27734375,-13.18359375,0.0,-9.27734375
1756366726.7827868,-41.50390625,-13.18359375,2.44140625,-21.484375
1756366726.7876225,-109.375,0.48828125,2.44140625,-27.34375
1756366726.7924583,-77.63671875,2.44140625,2.9296875,-41.015625
1756366726.797294,-8.7890625,-7.32421875,4.8828125,-28.80859375
1756366726.8021295,-22.94921875,-11.23046875,8.30078125,-10.7421875
1756366726.8047462,-66.40625,-13.671875,3.90625,-15.625
1756366726.8073628,-38.0859375,-3.90625,4.39453125,-15.13671875
1756366726.8099794,16.11328125,4.39453125,6.34765625,-13.671875
1756366726.8125963,27.34375,14.16015625,3.41796875,-14.6484375
1756366726.815213,-26.3671875,12.6953125,8.7890625,-17.578125
1756366726.8178296,-51.26953125,-0.48828125,10.25390625,-7.32421875
1756366726.8204465,16.11328125,5.859375,13.18359375,4.39453125
1756366726.823063,34.66796875,11.23046875,20.5078125,5.859375
1756366726.8256798,-25.390625,-16.6015625,16.6015625,3.90625
1756366726.8282964,-69.3359375,-28.3203125,14.6484375,-6.34765625
1756366726.830913,-20.5078125,-5.37109375,12.6953125,-10.7421875
1756366726.8335297,33.69140625,6.8359375,8.30078125,12.6953125
1756366726.8374388,-8.30078125,5.859375,18.06640625,18.5546875
1756366726.841348,-69.82421875,7.32421875,6.34765625,-5.37109375
1756366726.8452573,-43.9453125,4.8828125,-5.859375,-22.4609375
1756366726.8491664,23.4375,4.39453125,-0.9765625,-12.20703125
1756366726.8530755,9.765625,6.34765625,3.90625,-1.46484375
1756366726.8569846,-75.1953125,-9.27734375,-0.48828125,-13.18359375
1756366726.8608935,-103.515625,-3.41796875,-7.32421875,-27.83203125
1756366726.8648028,-24.90234375,1.953125,-0.9765625,-41.50390625
1756366726.868712,10.7421875,-6.34765625,9.765625,-37.59765625
1756366726.8726213,-41.015625,-4.8828125,6.8359375,-24.90234375
1756366726.8765304,-82.51953125,-3.90625,-1.953125,-24.4140625
1756366726.8804395,-49.31640625,-9.27734375,-5.859375,-23.4375
1756366726.8840666,-13.18359375,-13.18359375,-11.71875,-28.3203125
1756366726.8876936,-55.6640625,-5.859375,-4.39453125,-32.2265625
1756366726.8913207,-79.1015625,-7.32421875,-4.8828125,-31.25
1756366726.8949478,-33.69140625,-14.6484375,-12.20703125,-25.87890625
1756366726.8985748,18.5546875,-12.20703125,-5.37109375,-8.7890625
1756366726.902202,-10.7421875,-4.8828125,-2.9296875,-18.06640625
1756366726.9058292,-81.0546875,-17.08984375,-7.8125,-18.06640625
1756366726.9094565,-42.96875,-27.34375,-16.11328125,-15.625
1756366726.9130833,27.83203125,-26.3671875,-18.06640625,-16.11328125
1756366726.9167104,-7.32421875,-32.2265625,-12.6953125,-11.23046875
1756366726.9203374,-78.61328125,-23.4375,-16.6015625,-20.01953125
1756366726.9239645,-78.125,-17.08984375,-20.01953125,-36.62109375
1756366726.9288414,-12.6953125,-12.6953125,-20.01953125,-24.4140625
1756366726.9337184,-23.4375,-7.8125,-20.01953125,-26.3671875
1756366726.9385953,-63.4765625,-16.6015625,-22.94921875,-31.25
1756366726.9434724,-88.8671875,-25.87890625,-20.99609375,-25.390625
1756366726.9483492,-60.546875,-22.4609375,-15.625,-36.1328125
1756366726.953226,1.46484375,-20.99609375,-18.06640625,-22.4609375
1756366726.9581032,-44.921875,-21.484375,-14.6484375,-20.5078125
1756366726.96298,-98.6328125,-24.4140625,-12.20703125,-34.1796875
1756366726.9678571,-81.0546875,-22.4609375,-16.11328125,-41.50390625
1756366726.972734,-29.78515625,-15.13671875,-15.625,-33.69140625
1756366726.977611,-21.97265625,-22.94921875,-21.97265625,-30.76171875
1756366726.982488,-74.70703125,-23.92578125,-23.92578125,-47.36328125
1756366726.9875596,-71.77734375,-16.6015625,-20.01953125,-38.57421875
1756366726.992631,2.44140625,-16.11328125,-20.99609375,-25.87890625
1756366726.9977026,-6.34765625,-22.94921875,-18.5546875,-37.59765625
1756366727.0027742,-101.07421875,-33.69140625,-24.90234375,-52.24609375
1756366727.0078456,-110.83984375,-28.3203125,-18.06640625,-35.64453125
1756366727.0129173,-30.76171875,-31.25,-10.25390625,-19.53125
1756366727.017989,-14.16015625,-33.203125,-21.484375,-35.64453125
1756366727.0230603,-67.3828125,-18.5546875,-26.3671875,-25.87890625
1756366727.028132,-88.37890625,-13.671875,-21.484375,-19.04296875
1756366727.0332036,-21.484375,-18.06640625,-16.6015625,-16.6015625
1756366727.038275,28.3203125,-20.01953125,-15.625,-10.25390625
1756366727.0433466,-28.3203125,-21.484375,-17.578125,-34.1796875
1756366727.0458584,-104.4921875,-27.34375,-30.76171875,-48.33984375
1756366727.04837,-88.37890625,-34.1796875,-37.109375,-40.52734375
1756366727.0508814,-37.59765625,-24.4140625,-26.85546875,-42.48046875
1756366727.0533931,-71.77734375,-20.01953125,-25.87890625,-39.0625
1756366727.0559049,-101.07421875,-31.25,-23.92578125,-22.4609375
1756366727.0584164,-75.68359375,-30.2734375,-26.85546875,-34.66796875
1756366727.060928,-21.97265625,-23.92578125,-29.296875,-43.9453125
1756366727.0634396,-6.34765625,-16.11328125,-24.4140625,-42.48046875
1756366727.065951,-82.51953125,-19.04296875,-26.3671875,-57.12890625
1756366727.0684628,-95.21484375,-30.2734375,-19.04296875,-61.5234375
1756366727.0709743,-35.64453125,-30.76171875,-23.4375,-48.828125
1756366727.073486,-21.97265625,-25.87890625,-32.71484375,-37.59765625
1756366727.0773842,-65.4296875,-24.90234375,-24.90234375,-46.38671875
1756366727.081282,-102.5390625,-26.85546875,-26.3671875,-55.6640625
1756366727.0851803,-36.1328125,-21.484375,-27.83203125,-45.8984375
1756366727.0890784,19.04296875,-19.53125,-21.97265625,-29.296875
1756366727.0929763,-55.17578125,-22.94921875,-21.484375,-38.0859375
1756366727.0968745,-104.98046875,-19.53125,-18.5546875,-40.52734375
1756366727.1007726,-56.640625,-17.578125,-13.18359375,-32.71484375
1756366727.1046703,-16.6015625,-17.578125,-5.37109375,-34.66796875
1756366727.108569,-3.90625,-15.13671875,-7.32421875,-7.8125
1756366727.1124668,-45.8984375,-19.53125,-14.16015625,-3.41796875
1756366727.1163647,-53.7109375,-19.04296875,-10.7421875,-7.8125
1756366727.1202629,10.7421875,-24.4140625,-7.32421875,-10.25390625
1756366727.1238976,21.97265625,-35.15625,-11.23046875,-9.765625
1756366727.1275325,-37.59765625,-20.5078125,-13.18359375,-13.18359375
1756366727.1311672,-72.75390625,-11.23046875,-7.32421875,-23.92578125
1756366727.134802,-20.99609375,-14.16015625,-8.30078125,-12.20703125
1756366727.1384368,33.69140625,-10.25390625,-15.13671875,-7.8125
1756366727.1420715,-31.73828125,-8.30078125,-12.6953125,0.0
1756366727.1457062,-78.125,-12.20703125,-12.20703125,-7.32421875
1756366727.149341,-38.57421875,-12.6953125,-15.625,-21.97265625
1756366727.1529758,10.25390625,-10.25390625,-16.11328125,-20.01953125
1756366727.1566105,-28.80859375,-10.7421875,-10.25390625,-20.5078125
1756366727.1602454,-104.4921875,-7.8125,-16.11328125,-32.2265625
1756366727.16388,-56.640625,-6.8359375,-22.94921875,-35.15625
1756366727.168824,16.6015625,-13.671875,-16.6015625,-24.90234375
1756366727.1737678,-9.27734375,-14.16015625,-17.08984375,-43.9453125
1756366727.1787117,-67.87109375,-15.13671875,-13.18359375,-48.33984375
1756366727.1836555,-75.68359375,-11.23046875,-11.23046875,-31.25
1756366727.188599,-19.04296875,-9.27734375,-12.6953125,-22.94921875
1756366727.1935432,13.671875,-17.578125,-5.37109375,-11.23046875
1756366727.198487,-35.64453125,-22.94921875,-0.48828125,-19.53125
1756366727.203431,-75.1953125,-15.625,-3.41796875,-16.6015625
1756366727.2083747,-33.203125,-9.27734375,-4.8828125,-23.92578125
1756366727.2133186,12.6953125,-8.7890625,-5.37109375,-34.66796875
1756366727.2182624,-15.625,-10.7421875,1.46484375,-20.01953125
1756366727.2232063,-61.5234375,-11.71875,2.9296875,-18.06640625
1756366727.2282062,-16.6015625,-16.6015625,2.44140625,-2.44140625
1756366727.2332058,47.8515625,-11.71875,2.9296875,17.08984375
1756366727.2382057,2.9296875,-12.6953125,-1.953125,14.16015625
1756366727.2432053,-72.265625,-18.5546875,1.46484375,-6.8359375
1756366727.2482052,-59.5703125,-18.5546875,-0.9765625,-19.53125
1756366727.2532048,24.4140625,-19.04296875,-5.37109375,0.0
1756366727.2582047,27.83203125,-12.6953125,-5.859375,9.765625
1756366727.2632046,-64.453125,-19.04296875,-14.16015625,-4.39453125
1756366727.2682042,-77.1484375,-24.90234375,-18.06640625,-18.06640625
1756366727.273204,-14.6484375,-42.96875,-21.484375,-24.90234375
1756366727.2782035,19.53125,-38.0859375,-11.23046875,-15.13671875
1756366727.2832036,-32.71484375,11.23046875,7.32421875,-5.859375
1756366727.2845223,-64.94140625,17.08984375,4.8828125,-25.87890625
1756366727.2858417,-10.25390625,6.34765625,0.0,-33.203125
1756366727.2871606,4.39453125,6.8359375,-5.859375,-15.625
1756366727.2884798,-52.24609375,-3.90625,-8.30078125,-14.16015625
1756366727.2897987,-91.796875,-5.859375,-11.71875,-27.83203125
1756366727.2911177,-47.36328125,-6.34765625,-17.08984375,-41.9921875
1756366727.2924368,5.37109375,-20.5078125,-18.5546875,-38.57421875
1756366727.2937558,-15.625,-27.83203125,-19.04296875,-33.69140625
1756366727.295075,-72.265625,-16.11328125,-21.97265625,-35.15625
1756366727.296394,-46.38671875,-13.18359375,-20.01953125,-36.1328125
1756366727.297713,28.80859375,-23.4375,-15.625,-22.94921875
1756366727.299032,30.76171875,-22.94921875,-14.6484375,-13.671875
1756366727.304036,-33.203125,-12.20703125,-13.18359375,-8.7890625
1756366727.3090403,-63.4765625,-12.20703125,-18.06640625,-15.13671875
1756366727.3140445,-6.34765625,-21.97265625,-23.4375,-22.4609375
1756366727.3190486,21.484375,-13.18359375,-21.484375,-15.625
1756366727.3240528,-50.29296875,-12.6953125,-19.53125,-16.11328125
1756366727.329057,-83.984375,-23.92578125,-16.11328125,-11.23046875
1756366727.3340611,-24.90234375,-8.30078125,-14.16015625,-9.27734375
1756366727.3390653,33.69140625,-8.30078125,-15.625,-12.20703125
1756366727.3440695,0.9765625,-23.92578125,-7.8125,-17.578125
1756366727.3490736,-71.2890625,-21.484375,-7.32421875,-26.85546875
1756366727.3540778,-60.05859375,-18.5546875,-8.30078125,-20.01953125
1756366727.359082,6.34765625,-15.13671875,-1.953125,-1.953125
1756366727.3639522,-13.671875,-7.8125,-13.671875,-1.46484375
1756366727.368822,-71.77734375,-2.44140625,-11.23046875,-6.8359375
1756366727.3736925,-49.8046875,-2.9296875,-1.46484375,-4.8828125
1756366727.3785625,14.6484375,-2.44140625,-4.39453125,-16.11328125
1756366727.3834324,29.296875,-1.953125,-0.48828125,-26.3671875
1756366727.3883026,-52.24609375,-6.34765625,0.48828125,-12.6953125
1756366727.3931727,-86.42578125,-14.16015625,4.8828125,-8.7890625
1756366727.398043,-15.13671875,-19.53125,6.8359375,-39.0625
1756366727.4029129,31.73828125,-16.6015625,6.8359375,-22.4609375
1756366727.407783,-26.85546875,-11.71875,0.9765625,2.9296875
1756366727.412653,-92.28515625,-12.20703125,0.9765625,-20.5078125
1756366727.4175231,-32.71484375,-13.671875,9.765625,-7.32421875
1756366727.421385,43.45703125,-12.20703125,-3.41796875,6.34765625
1756366727.4252467,23.4375,-18.5546875,-0.48828125,2.9296875
1756366727.4291086,-41.9921875,-17.578125,14.16015625,0.0
1756366727.4329703,-25.390625,1.46484375,8.7890625,-11.23046875
1756366727.4368322,53.7109375,14.16015625,6.8359375,6.34765625
1756366727.440694,36.1328125,13.18359375,11.23046875,16.6015625
1756366727.4445558,-43.9453125,1.953125,10.25390625,0.9765625
1756366727.4484177,-55.6640625,-0.9765625,7.32421875,-20.99609375
1756366727.452279,6.8359375,5.859375,6.34765625,-20.01953125
1756366727.4561412,15.13671875,9.27734375,4.8828125,-13.671875
1756366727.460003,-43.45703125,5.859375,9.765625,-18.06640625
1756366727.4638648,-60.546875,5.859375,14.16015625,-24.4140625
1756366727.4663775,-6.34765625,10.7421875,8.30078125,-18.06640625
1756366727.4688904,20.5078125,10.7421875,6.8359375,-10.7421875
1756366727.4714031,-36.1328125,11.71875,5.859375,-36.1328125
1756366727.473916,-79.58984375,16.11328125,2.9296875,-36.1328125
1756366727.4764287,-30.2734375,14.16015625,12.20703125,-25.390625
1756366727.4789414,37.59765625,6.8359375,6.34765625,-12.20703125
1756366727.4814544,-6.8359375,2.9296875,-1.953125,1.46484375
1756366727.483967,-73.2421875,0.48828125,-1.46484375,-17.578125
1756366727.48648,-31.73828125,0.9765625,0.9765625,-19.04296875
1756366727.4889927,38.0859375,0.0,1.953125,5.859375
1756366727.4915056,27.83203125,5.37109375,1.46484375,18.5546875
1756366727.4940183,-30.2734375,14.16015625,11.23046875,8.7890625
1756366727.49902,-43.9453125,10.25390625,12.6953125,4.39453125
1756366727.5040214,14.16015625,1.46484375,7.8125,12.6953125
1756366727.5090227,45.41015625,4.8828125,-4.8828125,7.8125
1756366727.5140245,-6.8359375,1.46484375,-5.859375,-2.9296875
1756366727.5190258,-54.19921875,-8.7890625,-2.9296875,-24.90234375
1756366727.524027,-15.13671875,-4.8828125,-8.7890625,-12.6953125
1756366727.529029,35.64453125,-2.44140625,-0.48828125,16.6015625
1756366727.5340304,-12.20703125,-4.8828125,5.859375,17.578125
1756366727.539032,-68.84765625,-7.8125,4.39453125,6.34765625
1756366727.5440333,-45.41015625,-13.18359375,7.8125,-17.578125
1756366727.5490348,15.13671875,-8.30078125,1.46484375,-17.08984375
1756366727.5540364,-1.46484375,-1.953125,-10.7421875,-9.765625
1756366727.5565364,-68.359375,-5.859375,-8.7890625,-18.5546875
1756366727.5590367,-66.89453125,-15.625,-2.9296875,-27.83203125
1756366727.5615368,-2.9296875,-20.99609375,-2.44140625,-34.1796875
1756366727.5640368,-15.625,-9.27734375,-10.25390625,-23.92578125
1756366727.5665371,-80.56640625,-5.859375,-9.27734375,-23.4375
1756366727.5690372,-64.453125,-5.37109375,-7.8125,-29.296875
1756366727.5715373,-1.46484375,-0.9765625,-0.9765625,-21.484375
1756366727.5740376,27.83203125,0.0,-3.90625,-27.34375
1756366727.5765376,-27.34375,3.41796875,-9.27734375,-37.59765625
1756366727.5790377,-64.94140625,4.39453125,-9.27734375,-42.48046875
1756366727.581538,-7.32421875,5.37109375,-11.23046875,-32.2265625
1756366727.584038,43.45703125,-6.8359375,-11.23046875,4.8828125
1756366727.5879076,-2.9296875,-10.7421875,-6.8359375,5.37109375
1756366727.591777,-70.80078125,-1.46484375,-5.37109375,-28.3203125
1756366727.5956466,-36.62109375,2.44140625,-13.671875,-26.3671875
1756366727.5995162,31.73828125,8.30078125,-9.27734375,-14.6484375
1756366727.6033857,4.8828125,1.953125,-9.765625,-16.11328125
1756366727.6072552,-52.734375,-10.7421875,-16.11328125,-11.71875
1756366727.6111248,-28.3203125,-15.13671875,-17.08984375,-15.625
1756366727.6149943,13.18359375,-7.8125,-13.671875,-13.671875
1756366727.6188638,2.44140625,2.44140625,-11.71875,-13.18359375
1756366727.6227334,-49.8046875,11.71875,-15.625,-26.85546875
1756366727.626603,-65.4296875,6.34765625,-11.23046875,-37.109375
1756366727.6304724,10.7421875,-2.9296875,-14.6484375,-37.109375
1756366727.6341014,48.33984375,0.9765625,-19.04296875,-18.06640625
1756366727.6377306,-17.08984375,-0.48828125,-17.08984375,-0.48828125
1756366727.6413596,-65.91796875,0.0,-12.6953125,-5.37109375
1756366727.6449883,-29.78515625,9.765625,-6.8359375,-19.04296875
1756366727.6486175,25.87890625,13.671875,-7.8125,-16.6015625
1756366727.6522467,3.90625,10.7421875,-6.34765625,-19.04296875
1756366727.6558757,-51.26953125,5.859375,-2.44140625,-23.4375
1756366727.659505,-30.76171875,4.8828125,-1.953125,-13.18359375
1756366727.663134,37.109375,10.25390625,-5.859375,-16.6015625
1756366727.6667628,32.71484375,12.6953125,-3.41796875,-16.11328125
1756366727.670392,-46.38671875,20.99609375,-1.953125,-22.94921875
1756366727.674021,-50.78125,13.671875,-7.8125,-28.3203125
1756366727.680158,13.671875,-1.953125,-6.34765625,-14.16015625
1756366727.6862948,36.1328125,3.41796875,-8.30078125,5.37109375
1756366727.6924314,-21.484375,10.25390625,-11.23046875,-2.9296875
1756366727.6985683,-50.78125,10.25390625,-12.6953125,-6.34765625
1756366727.7047052,19.53125,8.30078125,-11.71875,9.765625
1756366727.710842,46.875,13.671875,-9.765625,2.9296875
1756366727.716979,-33.69140625,14.16015625,-7.32421875,1.953125
1756366727.723116,-70.80078125,4.8828125,-9.27734375,-12.6953125
1756366727.7292528,-12.20703125,-0.9765625,-12.6953125,-28.3203125
1756366727.7353897,44.921875,-0.48828125,-13.671875,-13.671875
1756366727.7415264,3.41796875,0.0,-20.5078125,-20.5078125
1756366727.7476633,-64.453125,-5.37109375,-20.5078125,-25.390625
1756366727.7515244,-44.921875,-8.30078125,-19.04296875,-27.34375
1756366727.7553854,28.3203125,-6.34765625,-9.27734375,-25.390625
1756366727.7592466,21.484375,-3.90625,-16.11328125,-28.3203125
1756366727.7631075,-54.19921875,-0.48828125,-25.87890625,-37.59765625
1756366727.7669687,-55.6640625,-2.44140625,-20.5078125,-43.9453125
1756366727.7708297,18.5546875,-12.6953125,-24.4140625,-28.80859375
1756366727.7746909,27.83203125,-19.04296875,-22.94921875,-18.06640625
1756366727.778552,-50.78125,-16.11328125,-23.4375,-26.3671875
1756366727.782413,-75.68359375,-13.18359375,-24.90234375,-25.390625
1756366727.7862742,-14.6484375,-15.625,-25.87890625,-21.97265625
1756366727.7901351,24.90234375,-18.06640625,-18.5546875,-38.0859375
1756366727.7939963,-20.01953125,-15.625,-18.06640625,-39.55078125
1756366727.7964995,-59.5703125,-10.25390625,-30.2734375,-28.3203125
1756366727.799003,-28.3203125,-22.94921875,-27.34375,-18.5546875
1756366727.8015063,33.69140625,-24.90234375,-26.3671875,-18.5546875
1756366727.8040094,8.7890625,-13.671875,-25.390625,-25.390625
1756366727.8065128,-72.75390625,-12.20703125,-27.83203125,-27.83203125
1756366727.8090162,-43.9453125,-21.97265625,-33.69140625,-16.6015625
1756366727.8115194,27.34375,-26.85546875,-31.73828125,-3.41796875
1756366727.8140228,2.44140625,-24.4140625,-30.76171875,-20.99609375
1756366727.816526,-62.5,-21.484375,-41.015625,-40.52734375
1756366727.819029,-73.73046875,-29.296875,-45.41015625,-40.0390625
1756366727.8215325,-22.94921875,-30.76171875,-38.57421875,-23.92578125
1756366727.824036,14.6484375,-20.5078125,-33.69140625,-20.99609375
1756366727.8279035,-35.15625,-15.13671875,-31.25,-37.59765625
1756366727.831771,-71.2890625,-20.01953125,-25.87890625,-48.828125
1756366727.8356383,-14.16015625,-26.3671875,-30.76171875,-44.921875
1756366727.839506,18.06640625,-20.5078125,-36.62109375,-41.015625
1756366727.8433738,-21.484375,-23.4375,-28.80859375,-27.34375
1756366727.8472414,-71.77734375,-24.90234375,-29.296875,-9.765625
1756366727.8511088,-45.41015625,-9.765625,-32.2265625,-15.13671875
1756366727.8549764,25.87890625,-8.30078125,-25.390625,-20.5078125
1756366727.858844,5.859375,-15.625,-20.01953125,1.46484375
1756366727.8627114,-71.77734375,-18.06640625,-22.4609375,-10.7421875
1756366727.866579,-65.4296875,-4.8828125,-21.97265625,-18.06640625
1756366727.8704467,32.71484375,4.39453125,-12.20703125,3.41796875
1756366727.8740633,35.64453125,8.30078125,-5.859375,0.9765625
1756366727.87768,-56.640625,-4.8828125,-12.6953125,-8.7890625
1756366727.8812966,-66.40625,-8.7890625,-13.18359375,-13.18359375
1756366727.8849134,20.5078125,2.9296875,-3.41796875,6.34765625
1756366727.88853,45.8984375,-19.53125,-0.9765625,0.48828125
1756366727.8921466,-21.484375,-23.92578125,-3.90625,-25.87890625
1756366727.8957634,-62.98828125,2.9296875,-15.13671875,-28.3203125
1756366727.89938,-12.20703125,8.7890625,-10.7421875,-6.34765625
1756366727.9029968,29.296875,6.34765625,-8.7890625,11.23046875
1756366727.906613,-23.4375,3.90625,-6.34765625,-2.44140625
1756366727.9102302,-77.1484375,-2.9296875,-2.44140625,-30.2734375
1756366727.9138467,-45.41015625,3.90625,-3.41796875,-33.203125
1756366727.918846,23.92578125,12.6953125,-0.9765625,-15.625
1756366727.9238448,-6.34765625,5.859375,-2.44140625,-16.6015625
1756366727.928844,-85.9375,4.8828125,-8.30078125,-13.671875
1756366727.9338431,-74.21875,6.8359375,-7.8125,-5.859375
1756366727.938842,-5.37109375,-1.46484375,-3.90625,-6.8359375
1756366727.9438412,-11.23046875,-12.20703125,-12.6953125,-12.20703125
1756366727.9488404,-82.03125,-19.53125,-25.87890625,-24.4140625
1756366727.9538393,-92.28515625,-25.87890625,-19.53125,-26.3671875
1756366727.9588385,-34.66796875,-16.11328125,-15.13671875,-29.296875
1756366727.9638376,-5.37109375,-5.37109375,-14.16015625,-30.2734375
1756366727.9688363,-43.45703125,-4.8828125,-11.23046875,-22.4609375
1756366727.9738357,-60.546875,-3.90625,-7.8125,-14.16015625
1756366727.9763532,-10.7421875,-7.8125,-5.859375,0.9765625
1756366727.9788706,11.71875,-20.5078125,-5.37109375,2.9296875
1756366727.981388,-37.59765625,-22.4609375,-7.8125,-3.41796875
1756366727.9839056,-65.4296875,-12.6953125,-9.765625,-10.25390625
1756366727.986423,-52.24609375,-18.06640625,-8.30078125,-10.25390625
1756366727.9889402,-9.765625,-19.04296875,-6.34765625,-18.06640625
1756366727.9914577,-14.6484375,-8.30078125,-12.6953125,-19.04296875
1756366727.9939752,-99.609375,-13.18359375,-25.390625,-32.2265625
1756366727.9964926,-89.84375,-20.01953125,-22.4609375,-40.52734375
1756366727.99901,0.9765625,-20.01953125,-13.671875,-9.765625
1756366728.0015275,4.39453125,-15.13671875,-13.18359375,-16.11328125
1756366728.004045,-71.77734375,-14.6484375,-17.578125,-16.6015625
1756366728.007759,-104.98046875,-11.71875,-15.625,-25.87890625
1756366728.0114737,-36.62109375,-7.32421875,-9.27734375,-34.66796875
1756366728.0151875,10.25390625,-12.20703125,-10.7421875,-33.203125
1756366728.018902,-45.41015625,-18.06640625,-17.08984375,-37.109375
1756366728.0226164,-104.00390625,-11.23046875,-8.30078125,-29.296875
1756366728.0263307,-71.2890625,-9.765625,-11.23046875,-42.96875
1756366728.030045,-19.04296875,-14.16015625,-14.6484375,-19.53125
1756366728.0337594,-44.921875,-12.6953125,-6.8359375,-6.34765625
1756366728.0374737,-87.890625,-11.71875,-5.37109375,-29.296875
1756366728.0411878,-74.70703125,-5.859375,-2.44140625,-26.85546875
1756366728.044902,-2.9296875,1.46484375,-5.859375,-19.04296875
1756366728.0486164,14.6484375,10.25390625,-0.48828125,-6.8359375
1756366728.053486,-41.50390625,8.7890625,6.34765625,-1.46484375
1756366728.058356,-41.015625,4.39453125,13.671875,2.9296875
1756366728.0632255,26.85546875,11.71875,10.7421875,15.13671875
1756366728.0680957,55.6640625,7.8125,4.39453125,25.390625
1756366728.0729654,5.37109375,10.7421875,14.16015625,22.94921875
1756366728.077835,-44.43359375,12.6953125,20.01953125,11.23046875
1756366728.082705,-7.8125,3.90625,17.08984375,16.11328125
1756366728.0875747,44.921875,6.34765625,6.34765625,9.27734375
1756366728.092445,5.859375,0.0,4.8828125,-7.32421875
1756366728.0973144,-59.08203125,-0.48828125,9.765625,13.671875
1756366728.1021843,-31.73828125,9.765625,19.53125,26.3671875
1756366728.107054,52.734375,19.53125,25.390625,38.0859375
1756366728.110901,38.57421875,24.4140625,17.08984375,20.01953125
1756366728.1147482,-49.31640625,18.5546875,16.11328125,-17.578125
1756366728.1185954,-31.25,22.94921875,18.06640625,-2.44140625
1756366728.1224425,46.38671875,27.83203125,16.11328125,12.6953125
1756366728.1262896,50.78125,27.83203125,20.5078125,-0.9765625
1756366728.1301367,-14.6484375,24.90234375,19.04296875,-7.32421875
1756366728.133984,-38.57421875,25.390625,18.06640625,6.34765625
1756366728.137831,25.390625,34.66796875,24.4140625,15.625
1756366728.141678,51.26953125,25.390625,25.87890625,1.46484375
1756366728.1455252,-1.46484375,15.13671875,19.53125,-5.37109375
1756366728.1493723,-22.4609375,14.16015625,27.83203125,1.46484375
1756366728.1532197,31.73828125,19.53125,32.71484375,6.8359375
1756366728.158222,74.21875,9.765625,20.5078125,21.484375
1756366728.1632245,25.87890625,0.0,20.5078125,21.97265625
1756366728.1682272,-36.1328125,5.859375,26.85546875,16.6015625
1756366728.1732297,-5.859375,-1.953125,25.390625,29.296875
1756366728.1782322,52.734375,12.20703125,27.83203125,40.0390625
1756366728.1832347,31.73828125,24.4140625,22.4609375,39.55078125
1756366728.1882372,-39.55078125,28.80859375,15.625,15.625
1756366728.1932397,-21.97265625,25.87890625,23.4375,2.9296875
1756366728.1982422,38.57421875,14.6484375,19.04296875,14.16015625
1756366728.203245,35.64453125,10.7421875,16.11328125,9.765625
1756366728.2082474,-27.34375,3.90625,16.6015625,7.32421875
1756366728.21325,-51.26953125,1.953125,19.04296875,7.8125
1756366728.2158155,24.90234375,5.37109375,20.99609375,-3.90625
1756366728.2183812,50.29296875,5.859375,15.625,-5.859375
1756366728.2209468,-22.4609375,3.90625,10.25390625,-7.32421875
1756366728.2235124,-69.3359375,4.39453125,4.8828125,-4.8828125
1756366728.226078,-8.30078125,1.953125,1.46484375,-3.90625
1756366728.2286434,45.41015625,-4.8828125,4.8828125,-7.32421875
1756366728.231209,-11.71875,-1.953125,12.20703125,-16.11328125
1756366728.233775,-59.5703125,0.9765625,14.16015625,-27.34375
1756366728.2363403,-26.85546875,-9.27734375,9.27734375,-27.34375
1756366728.238906,19.04296875,-13.18359375,7.8125,-14.6484375
1756366728.2414715,-39.55078125,-7.8125,2.9296875,-20.99609375
1756366728.2440372,-95.21484375,-2.44140625,1.46484375,-31.73828125
1756366728.2477922,-44.921875,-7.8125,5.859375,-10.7421875
1756366728.251547,27.83203125,-9.765625,8.7890625,1.953125
1756366728.2553022,33.69140625,-6.8359375,4.8828125,-13.18359375
1756366728.259057,-30.76171875,-15.13671875,5.859375,-17.08984375
1756366728.262812,-58.59375,-13.671875,7.8125,-15.13671875
1756366728.2665672,-1.46484375,-7.8125,6.34765625,-13.671875
1756366728.270322,27.34375,-1.953125,7.32421875,0.0
1756366728.2740772,-11.23046875,-2.44140625,10.25390625,0.9765625
1756366728.277832,-44.921875,-3.90625,10.25390625,-1.46484375
1756366728.2815871,-22.4609375,-0.9765625,9.765625,-1.953125
1756366728.285342,42.96875,-6.34765625,12.6953125,-6.34765625
1756366728.289097,17.578125,0.0,12.6953125,-12.6953125
1756366728.2929122,-48.33984375,6.8359375,6.8359375,5.37109375
1756366728.2967272,-35.15625,-4.39453125,4.8828125,6.8359375
1756366728.3005424,26.3671875,-1.953125,9.765625,-1.46484375
1756366728.3043575,24.90234375,6.8359375,11.71875,14.6484375
1756366728.3081727,-49.31640625,6.8359375,13.18359375,9.27734375
1756366728.311988,-60.05859375,0.9765625,16.6015625,-0.48828125
1756366728.3158028,-1.46484375,-8.30078125,11.71875,-17.08984375
1756366728.319618,27.34375,-6.34765625,14.6484375,-6.34765625
1756366728.3234332,-30.2734375,0.9765625,19.53125,2.44140625
1756366728.327248,-71.77734375,4.8828125,24.90234375,-20.01953125
1756366728.3310633,-15.625,0.0,22.94921875,-15.13671875
1756366728.3348784,37.109375,2.9296875,14.6484375,2.44140625
1756366728.3385253,-37.109375,2.9296875,9.27734375,-2.44140625
1756366728.342172,-88.8671875,-7.32421875,3.90625,-22.4609375
1756366728.3458188,-17.578125,-11.23046875,15.625,-7.8125
1756366728.3494654,43.45703125,-4.39453125,27.83203125,16.11328125
1756366728.3531122,40.0390625,-5.37109375,27.34375,20.5078125
1756366728.356759,-28.80859375,-14.16015625,24.90234375,13.671875
1756366728.3604057,-33.69140625,-5.859375,32.71484375,1.953125
1756366728.3640523,45.41015625,1.953125,26.3671875,10.25390625
1756366728.3676991,56.640625,1.46484375,18.5546875,36.62109375
1756366728.371346,-5.859375,6.8359375,20.5078125,34.66796875
1756366728.3749926,-38.0859375,6.8359375,21.97265625,1.46484375
1756366728.3786397,27.34375,4.39453125,20.01953125,4.39453125
1756366728.3824265,62.01171875,5.859375,17.08984375,32.2265625
1756366728.3862135,-13.18359375,2.44140625,24.4140625,19.04296875
1756366728.3900008,-60.05859375,-4.8828125,20.99609375,7.8125
1756366728.393788,0.9765625,-1.46484375,5.37109375,7.32421875
1756366728.397575,48.33984375,3.41796875,1.46484375,6.8359375
1756366728.401362,-5.859375,7.32421875,5.37109375,5.37109375
1756366728.405149,-64.453125,1.46484375,4.8828125,5.859375
1756366728.408936,-17.08984375,0.9765625,14.6484375,5.37109375
1756366728.412723,58.10546875,13.18359375,20.5078125,-1.46484375
1756366728.4165103,39.55078125,24.4140625,19.53125,9.765625
1756366728.4202974,-32.71484375,26.3671875,27.83203125,6.34765625
1756366728.4240844,-30.76171875,17.08984375,26.3671875,-4.39453125
1756366728.4288857,19.53125,17.08984375,20.99609375,16.11328125
1756366728.4336865,35.15625,17.578125,26.85546875,31.25
1756366728.4384875,-6.8359375,11.71875,31.25,17.578125
1756366728.4432886,-22.4609375,16.11328125,27.34375,24.4140625
1756366728.4480896,32.71484375,26.85546875,24.90234375,23.4375
1756366728.4528906,61.5234375,23.92578125,30.2734375,6.8359375
1756366728.4576917,20.01953125,18.06640625,25.87890625,18.5546875
1756366728.4624927,-33.203125,15.13671875,20.99609375,-1.953125
1756366728.4672935,-8.30078125,8.7890625,31.25,2.44140625
1756366728.4720948,72.75390625,9.27734375,31.25,50.29296875
1756366728.4768958,55.6640625,20.01953125,32.71484375,49.31640625
1756366728.4816968,-11.23046875,22.4609375,30.76171875,21.97265625
1756366728.4856992,-0.9765625,11.71875,22.4609375,18.06640625
1756366728.4897013,53.22265625,10.25390625,19.53125,23.4375
1756366728.4937036,37.109375,7.8125,23.92578125,16.6015625
1756366728.497706,-58.59375,6.34765625,28.3203125,8.30078125
1756366728.501708,-57.12890625,8.7890625,20.99609375,-9.27734375
1756366728.5057104,21.484375,8.30078125,9.765625,-8.7890625
1756366728.5097127,32.71484375,13.18359375,6.8359375,10.25390625
1756366728.5137148,-32.2265625,12.20703125,8.7890625,-5.37109375
1756366728.5177171,-57.6171875,9.27734375,14.16015625,-13.18359375
1756366728.5217197,-1.953125,10.7421875,11.23046875,-12.6953125
1756366728.5257215,35.64453125,9.27734375,9.765625,-9.765625
1756366728.529724,-2.44140625,12.6953125,18.5546875,14.6484375
1756366728.53342,-45.8984375,8.30078125,18.06640625,7.8125
1756366728.5371163,-25.87890625,1.46484375,12.6953125,-3.90625
1756366728.5408125,28.80859375,13.18359375,17.08984375,-2.9296875
1756366728.5445085,14.6484375,14.16015625,19.53125,0.9765625
1756366728.548205,-43.9453125,-2.9296875,13.671875,0.0
1756366728.5519009,-46.875,-7.8125,0.48828125,-1.46484375
1756366728.555597,12.20703125,6.8359375,-5.859375,-5.859375
1756366728.5592933,38.0859375,18.06640625,10.25390625,-14.6484375
1756366728.5629892,-26.85546875,12.6953125,15.13671875,-0.9765625
1756366728.5666854,-44.43359375,-4.39453125,10.7421875,9.765625
1756366728.5703816,16.11328125,-6.8359375,12.6953125,4.8828125
1756366728.5740778,32.71484375,3.41796875,17.08984375,8.30078125
1756366728.578899,-28.80859375,4.8828125,13.671875,13.18359375
1756366728.5837195,-60.05859375,8.7890625,13.18359375,8.7890625
1756366728.5885403,-6.34765625,7.8125,14.6484375,-3.41796875
1756366728.5933611,43.9453125,7.8125,9.27734375,-6.34765625
1756366728.598182,0.0,8.30078125,5.37109375,6.34765625
1756366728.6030023,-62.5,-5.859375,4.8828125,-0.48828125
1756366728.6078234,-21.97265625,-8.7890625,0.9765625,-11.71875
1756366728.6126442,33.69140625,-2.44140625,6.8359375,-3.90625
1756366728.617465,2.9296875,1.46484375,7.32421875,15.625
1756366728.6222858,-78.61328125,-7.32421875,0.9765625,2.9296875
1756366728.627107,-66.40625,-15.625,2.44140625,-26.85546875
1756366728.6319275,15.625,-7.8125,-1.46484375,-18.5546875
1756366728.6346102,-12.20703125,-6.34765625,-7.32421875,-22.4609375
1756366728.6372926,-85.9375,-12.20703125,-1.46484375,-34.1796875
1756366728.639975,-79.1015625,-10.25390625,-0.48828125,-36.62109375
1756366728.6426578,-3.41796875,-0.9765625,-4.8828125,-21.97265625
1756366728.6453404,6.34765625,-2.9296875,-2.44140625,9.765625
1756366728.648023,-59.08203125,-11.23046875,-1.953125,4.8828125
1756366728.650705,-86.42578125,-8.7890625,-2.44140625,-27.83203125
1756366728.653388,-33.69140625,-10.7421875,-9.27734375,-26.85546875
1756366728.6560707,20.99609375,-8.30078125,-10.25390625,-1.953125
1756366728.6587532,-7.32421875,3.90625,-4.39453125,3.41796875
1756366728.6614356,-58.59375,1.46484375,-6.34765625,-10.25390625
1756366728.6641183,-41.015625,-2.9296875,-3.41796875,-12.6953125
1756366728.667868,16.6015625,-4.39453125,-8.7890625,-24.4140625
1756366728.671618,-3.41796875,-3.90625,-17.08984375,-32.71484375
1756366728.6753678,-64.94140625,0.9765625,-7.32421875,-16.6015625
1756366728.6791174,-53.7109375,-0.48828125,0.0,-27.83203125
1756366728.6828673,16.11328125,-1.46484375,4.8828125,-17.578125
1756366728.6866171,10.7421875,-1.46484375,6.34765625,-16.6015625
1756366728.690367,-53.7109375,0.0,0.48828125,-17.08984375
1756366728.6941168,-76.171875,-0.48828125,-0.48828125,-9.765625
1756366728.6978664,-40.0390625,-0.9765625,-3.41796875,-19.04296875
1756366728.7016163,2.44140625,6.34765625,-1.953125,-18.5546875
1756366728.705366,-38.0859375,-0.9765625,1.46484375,-12.20703125
1756366728.709116,-74.70703125,-8.30078125,0.0,-8.7890625
1756366728.7128692,-37.59765625,-2.9296875,0.9765625,-23.92578125
1756366728.716622,-5.859375,-8.30078125,0.0,-25.390625
1756366728.720375,-35.64453125,-8.7890625,3.41796875,-26.3671875
1756366728.7241282,-70.80078125,-7.32421875,0.48828125,-36.1328125
1756366728.7278814,-44.921875,-9.27734375,2.9296875,-33.69140625
1756366728.7316344,14.6484375,-13.671875,4.8828125,-29.296875
1756366728.735387,-2.44140625,-20.5078125,-7.8125,-15.13671875
1756366728.7391405,-49.8046875,-13.18359375,-7.32421875,-7.8125
1756366728.7428937,-50.78125,-12.20703125,-3.41796875,-30.76171875
1756366728.7466466,21.97265625,-28.3203125,-4.8828125,-25.87890625
1756366728.7503996,45.41015625,-20.5078125,-2.9296875,-1.953125
1756366728.7541528,-33.203125,0.9765625,-6.8359375,-9.27734375
1756366728.7580123,-58.10546875,2.9296875,-11.71875,-1.953125
1756366728.761872,7.32421875,0.9765625,-9.27734375,5.859375
1756366728.7657318,32.71484375,8.30078125,-10.25390625,-17.08984375
1756366728.769591,-17.578125,1.46484375,-13.18359375,-13.671875
1756366728.773451,-63.4765625,-12.20703125,-18.06640625,-17.578125
1756366728.7773108,-41.50390625,-15.13671875,-13.671875,-36.62109375
1756366728.7811704,22.94921875,-5.37109375,-4.8828125,-13.671875
1756366728.78503,-7.32421875,-1.953125,-5.37109375,1.953125
1756366728.7888896,-79.1015625,-6.8359375,-6.8359375,-13.671875
1756366728.7927494,-57.12890625,-7.8125,-9.27734375,-31.25
1756366728.796609,-32.2265625,-15.625,-8.30078125,-41.50390625
1756366728.8004687,-34.1796875,-14.16015625,-11.71875,-34.66796875
1756366728.8052652,-59.5703125,-16.6015625,-16.6015625,-32.71484375
1756366728.8100617,-79.1015625,-28.80859375,-21.484375,-25.87890625
1756366728.814858,-24.4140625,-29.296875,-17.578125,-21.97265625
1756366728.8196542,-20.01953125,-27.34375,-22.4609375,-45.8984375
1756366728.8244507,-67.3828125,-26.3671875,-37.109375,-51.26953125
1756366728.829247,-88.8671875,-35.15625,-34.66796875,-28.80859375
1756366728.8340435,-56.15234375,-31.73828125,-30.2734375,-5.37109375
1756366728.83884,-9.27734375,-31.73828125,-32.2265625,-9.27734375
1756366728.8436365,-56.640625,-26.3671875,-36.1328125,-41.9921875
1756366728.8484328,-82.51953125,-20.99609375,-39.55078125,-46.38671875
1756366728.853229,-42.96875,-33.203125,-36.1328125,-48.828125
1756366728.8580256,8.7890625,-29.296875,-23.92578125,-41.015625
1756366728.861793,-10.25390625,-49.31640625,-31.73828125,-41.015625
1756366728.8655603,-86.42578125,-56.15234375,-41.50390625,-49.8046875
1756366728.869328,-64.94140625,-25.87890625,-28.3203125,-40.52734375
1756366728.8730955,2.44140625,-19.04296875,-26.3671875,-31.73828125
1756366728.876863,14.16015625,-19.53125,-21.97265625,-12.6953125
1756366728.8806305,-65.91796875,-22.94921875,-20.5078125,-25.390625
1756366728.8843982,-100.09765625,-27.83203125,-31.25,-47.36328125
1756366728.8881657,-16.11328125,-39.55078125,-28.3203125,-39.55078125
1756366728.8919332,25.390625,-56.640625,-19.04296875,-31.25
1756366728.8957007,-40.0390625,-47.36328125,-23.4375,-45.41015625
1756366728.8994682,-90.8203125,-25.87890625,-29.78515625,-37.109375
1756366728.9032357,-45.41015625,-16.11328125,-29.296875,-28.80859375
1756366728.9070177,3.41796875,-18.5546875,-19.04296875,-35.64453125
1756366728.9107995,-40.52734375,-19.53125,-10.7421875,-35.64453125
1756366728.9145813,-88.37890625,-15.625,-18.06640625,-39.0625
1756366728.918363,-51.26953125,-28.80859375,-22.4609375,-28.80859375
1756366728.9221454,-5.37109375,-36.1328125,-13.671875,-18.06640625
1756366728.9259272,-39.55078125,-31.25,-13.671875,-28.80859375
1756366728.929709,-87.890625,-26.85546875,-22.4609375,-50.29296875
1756366728.933491,-75.1953125,-29.78515625,-17.08984375,-43.45703125
1756366728.937273,-16.6015625,-32.71484375,-6.34765625,-37.59765625
1756366728.9410548,-24.90234375,-27.34375,-6.8359375,-31.73828125
1756366728.9448366,-82.51953125,-15.13671875,-13.671875,-17.578125
1756366728.948619,-99.12109375,-21.97265625,-16.6015625,-34.1796875
1756366728.9535012,-8.7890625,-31.73828125,-17.08984375,-27.34375
1756366728.958384,39.0625,-17.08984375,-15.625,-16.11328125
1756366728.9632666,-37.109375,-24.90234375,-15.13671875,-19.04296875
1756366728.9681492,-85.44921875,-48.828125,-21.484375,-34.1796875
1756366728.973032,-49.8046875,-38.0859375,-19.53125,-45.8984375
1756366728.9779146,19.53125,-14.6484375,-13.18359375,-33.203125
1756366728.9827971,-15.13671875,-39.0625,-23.4375,-22.4609375
1756366728.98768,-82.51953125,-56.15234375,-19.53125,-15.625
1756366728.9925623,-50.29296875,-25.87890625,-15.13671875,-23.4375
1756366728.997445,29.296875,0.9765625,-20.5078125,-23.4375
1756366729.002328,-10.7421875,3.41796875,-12.20703125,-33.203125
1756366729.0072105,-86.9140625,-0.48828125,-4.39453125,-37.109375
1756366729.009821,-59.08203125,-3.90625,-4.39453125,-29.78515625
1756366729.0124314,5.859375,-6.8359375,0.0,-30.76171875
1756366729.0150418,12.20703125,-0.9765625,3.90625,-21.97265625
1756366729.0176525,-66.89453125,-5.859375,-1.953125,-32.71484375
1756366729.020263,-88.37890625,-12.20703125,-10.7421875,-34.66796875
1756366729.0228734,-8.30078125,-13.18359375,-3.90625,-2.9296875
1756366729.0254838,13.18359375,-15.625,-0.9765625,-11.71875
1756366729.0280943,-64.453125,-19.04296875,-6.34765625,-39.0625
1756366729.030705,-93.75,2.44140625,-19.04296875,-30.76171875
1756366729.0333154,-48.33984375,9.765625,-16.6015625,-18.5546875
1756366729.035926,12.6953125,-23.4375,-7.8125,-0.48828125
1756366729.0385363,-1.953125,-17.08984375,-10.7421875,5.37109375
1756366729.0422668,-62.98828125,-5.859375,-11.71875,0.48828125
1756366729.0459971,-47.36328125,-12.20703125,-8.7890625,-17.578125
1756366729.0497277,14.16015625,-2.44140625,-7.32421875,-13.671875
1756366729.0534582,-2.44140625,-24.4140625,-16.6015625,-18.06640625
1756366729.0571887,-66.89453125,-41.015625,-18.06640625,-16.6015625
1756366729.0609193,-66.89453125,-7.32421875,-3.41796875,-12.20703125
1756366729.0646496,-19.53125,-3.41796875,-9.765625,-23.4375
1756366729.06838,0.0,-15.13671875,-23.4375,-11.71875
1756366729.072111,-75.68359375,-16.11328125,-20.5078125,-34.66796875
1756366729.075841,-118.1640625,-17.08984375,-19.04296875,-55.17578125
1756366729.0795715,-82.03125,-23.4375,-31.25,-38.57421875
1756366729.083302,-29.78515625,-36.62109375,-35.64453125,-26.85546875
1756366729.0893905,-48.33984375,-40.52734375,-25.87890625,-24.4140625
1756366729.095479,-109.375,-27.34375,-23.4375,-40.0390625
1756366729.1015673,-58.59375,-30.76171875,-22.4609375,-53.22265625
1756366729.1076558,6.8359375,-34.1796875,-26.3671875,-39.0625
1756366729.1137445,-24.4140625,-17.08984375,-27.83203125,-33.203125
1756366729.1198328,-87.40234375,-20.99609375,-19.04296875,-52.734375
1756366729.1259212,-98.14453125,-26.3671875,-19.53125,-54.19921875
1756366729.1320095,-26.85546875,-27.34375,-21.484375,-30.76171875
1756366729.1380982,-0.48828125,-19.53125,-16.6015625,-16.6015625
1756366729.1441865,-81.0546875,-18.5546875,-17.578125,-30.76171875
1756366729.150275,-86.42578125,-29.78515625,-20.5078125,-29.78515625
1756366729.1563635,0.9765625,-23.4375,-14.6484375,-14.6484375
1756366729.1577938,29.78515625,-12.6953125,-1.953125,1.46484375
1756366729.1592238,-23.92578125,-23.92578125,-4.39453125,-7.8125
1756366729.160654,-65.4296875,-30.76171875,-9.27734375,-15.625
1756366729.1620843,-13.671875,-16.11328125,-4.39453125,6.34765625
1756366729.1635144,44.43359375,-3.41796875,5.859375,1.46484375
1756366729.1649446,-7.8125,-17.08984375,10.25390625,-9.765625
1756366729.166375,-62.01171875,-11.23046875,4.39453125,6.8359375
1756366729.167805,-24.90234375,-3.41796875,3.90625,2.44140625
1756366729.1692352,22.94921875,2.9296875,10.25390625,-3.90625
1756366729.1706655,10.7421875,27.83203125,22.4609375,14.16015625
1756366729.1720955,-44.921875,18.06640625,14.16015625,7.8125
1756366729.1735258,-59.08203125,6.34765625,7.32421875,-11.71875
1756366729.1773877,15.625,10.7421875,6.34765625,-8.7890625
1756366729.1812494,34.1796875,5.37109375,7.8125,4.39453125
1756366729.1851113,-50.78125,10.7421875,8.7890625,-8.30078125
1756366729.1889732,-70.3125,12.6953125,4.8828125,-17.08984375
1756366729.1928349,-2.44140625,8.30078125,4.39453125,-18.5546875
1756366729.1966968,29.78515625,0.48828125,9.27734375,-11.71875
1756366729.200559,-15.625,1.46484375,8.30078125,-9.27734375
1756366729.2044203,-43.45703125,8.30078125,6.34765625,-12.6953125
1756366729.2082822,-7.32421875,0.0,15.13671875,-9.27734375
1756366729.212144,22.4609375,-1.953125,10.7421875,-15.625
1756366729.2160058,-4.8828125,1.953125,4.8828125,-1.953125
1756366729.2198677,-61.5234375,-1.953125,4.8828125,-1.46484375
1756366729.224681,-46.38671875,0.0,4.39453125,-24.4140625
1756366729.2294936,15.625,4.39453125,7.32421875,-15.13671875
1756366729.2343068,7.8125,3.90625,5.859375,-16.11328125
1756366729.2391198,-37.59765625,3.41796875,-3.41796875,-20.99609375
1756366729.2439327,-35.15625,5.859375,-1.46484375,-8.30078125
1756366729.2487457,5.859375,3.41796875,1.953125,-2.9296875
1756366729.2535586,3.90625,5.859375,3.90625,7.32421875
1756366729.2583716,-41.50390625,-1.953125,4.8828125,-10.7421875
1756366729.2631843,-48.828125,-11.23046875,3.41796875,-19.53125
1756366729.2679975,1.953125,12.20703125,7.32421875,-10.25390625
1756366729.2728107,53.22265625,21.484375,11.23046875,5.37109375
1756366729.2776237,17.578125,21.484375,11.71875,7.8125
1756366729.2814825,-62.98828125,24.90234375,9.27734375,0.9765625
1756366729.2853413,-26.3671875,17.578125,12.20703125,5.37109375
1756366729.2891998,44.43359375,6.34765625,14.16015625,2.9296875
1756366729.2930586,0.0,9.27734375,11.71875,-1.953125
1756366729.2969174,-58.10546875,10.7421875,11.23046875,-18.5546875
1756366729.3007762,-42.48046875,5.859375,11.71875,-20.5078125
1756366729.304635,1.953125,1.46484375,10.7421875,-12.6953125
1756366729.308494,-13.18359375,9.765625,3.90625,-25.87890625
1756366729.312353,-103.515625,5.859375,8.7890625,-36.1328125
1756366729.3162112,-82.03125,0.0,20.5078125,-13.671875
1756366729.32007,18.5546875,0.0,8.30078125,-7.32421875
1756366729.3239288,11.23046875,-3.90625,-6.34765625,-12.6953125
1756366729.3277037,-62.5,-4.8828125,-6.8359375,-18.5546875
1756366729.331478,-63.96484375,4.39453125,0.48828125,-28.3203125
1756366729.3352523,0.9765625,-11.23046875,2.44140625,-12.6953125
1756366729.339027,-1.46484375,-36.62109375,-3.90625,1.953125
1756366729.3428016,-62.01171875,-17.578125,-12.6953125,-18.5546875
1756366729.3465762,-72.75390625,-8.30078125,-14.6484375,-38.0859375
1756366729.3503506,-37.109375,-6.34765625,-16.11328125,-43.45703125
1756366729.3541253,-11.23046875,-7.8125,-14.6484375,-26.3671875
1756366729.3578997,-20.01953125,-7.8125,-9.765625,1.953125
1756366729.3616743,-68.84765625,-7.8125,-10.25390625,-14.6484375
1756366729.3654487,-98.6328125,-8.7890625,-2.9296875,-34.66796875
1756366729.3692234,-39.55078125,-5.859375,-10.25390625,-33.203125
1756366729.3741922,-16.6015625,-18.5546875,-12.20703125,-39.0625
1756366729.3791611,-88.8671875,-25.390625,-2.44140625,-42.96875
1756366729.38413,-79.58984375,-16.11328125,-7.32421875,-41.50390625
1756366729.389099,-21.484375,-12.6953125,-7.8125,-41.9921875
1756366729.3940678,-11.71875,-6.8359375,-1.953125,-41.015625
1756366729.3990366,-58.10546875,-5.859375,-7.32421875,-37.109375
1756366729.4040055,-87.890625,-4.39453125,-9.765625,-46.875
1756366729.4089744,-60.05859375,-7.32421875,-5.37109375,-62.98828125
1756366729.4139433,-20.5078125,-11.71875,-11.71875,-51.7578125
1756366729.4189122,-51.7578125,-9.27734375,-20.99609375,-59.08203125
1756366729.423881,-122.0703125,-8.7890625,-20.01953125,-66.40625
1756366729.42885,-60.546875,-9.765625,-8.7890625,-36.62109375
1756366729.4313722,-4.8828125,-5.37109375,0.9765625,-28.80859375
1756366729.4338942,-50.29296875,0.48828125,2.9296875,-35.15625
1756366729.4364164,-85.44921875,0.0,-8.30078125,-28.3203125
1756366729.4389384,-63.96484375,-4.39453125,-4.39453125,-24.90234375
1756366729.4414606,-3.41796875,-5.37109375,0.9765625,-14.6484375
1756366729.4439826,6.8359375,0.48828125,-4.39453125,-7.32421875
1756366729.4465048,-45.41015625,0.9765625,1.46484375,3.41796875
1756366729.449027,-69.3359375,-8.30078125,6.34765625,2.44140625
1756366729.451549,-18.5546875,-9.765625,7.32421875,-15.13671875
1756366729.4540713,-14.6484375,3.41796875,-3.41796875,-14.6484375
1756366729.4565933,-72.265625,-3.41796875,-8.30078125,-16.6015625
1756366729.4591155,-83.0078125,-15.13671875,-5.859375,-20.99609375
1756366729.462921,-40.0390625,-7.32421875,-6.34765625,-23.92578125
1756366729.4667256,3.41796875,-11.23046875,-6.34765625,-29.296875
1756366729.4705305,-28.80859375,-22.4609375,-0.9765625,-20.5078125
1756366729.4743357,-88.37890625,-25.390625,-7.32421875,-25.87890625
1756366729.4781408,-82.03125,-19.04296875,-7.32421875,-25.390625
1756366729.4819458,-30.2734375,-11.23046875,-7.8125,-23.92578125
1756366729.485751,-30.76171875,-15.13671875,-11.71875,-28.3203125
1756366729.4895558,-75.68359375,-9.765625,-3.90625,-28.3203125
1756366729.493361,-74.21875,5.37109375,1.46484375,-35.64453125
1756366729.497166,-8.7890625,9.27734375,5.37109375,-18.5546875
1756366729.5009708,2.44140625,-3.90625,9.765625,-3.41796875
1756366729.504776,-64.453125,-8.30078125,-1.46484375,-18.5546875
1756366729.5095415,-75.1953125,-10.7421875,-10.7421875,-12.20703125
1756366729.514307,-12.20703125,-13.671875,0.9765625,2.9296875
1756366729.5190723,10.25390625,-8.7890625,-7.32421875,-11.23046875
1756366729.523838,-30.2734375,6.8359375,8.30078125,-5.37109375
1756366729.5286036,-81.54296875,12.20703125,14.6484375,-2.44140625
1756366729.533369,-47.8515625,0.48828125,2.44140625,-8.30078125
1756366729.5381348,6.8359375,-6.34765625,-2.44140625,-15.625
1756366729.5429003,-49.8046875,-13.18359375,-7.32421875,-19.53125
1756366729.5476658,-102.5390625,-22.94921875,-7.32421875,-37.109375
1756366729.552431,-92.7734375,-33.69140625,-12.6953125,-36.1328125
1756366729.5571969,-42.48046875,-30.2734375,-16.6015625,-20.01953125
1756366729.5619624,-24.4140625,-16.11328125,-24.4140625,-32.71484375
1756366729.56571,-84.47265625,-23.4375,-24.90234375,-58.10546875
1756366729.569458,-108.3984375,-37.109375,-24.4140625,-51.26953125
1756366729.5732057,-54.6875,-33.203125,-31.73828125,-36.1328125
1756366729.5769536,-19.53125,-33.69140625,-30.2734375,-20.5078125
1756366729.5807014,-77.63671875,-40.0390625,-25.87890625,-26.3671875
1756366729.5844493,-129.8828125,-56.640625,-29.296875,-62.5
1756366729.588197,-100.09765625,-71.77734375,-42.48046875,-56.15234375
1756366729.5919447,-50.29296875,-56.15234375,-40.52734375,-52.24609375
1756366729.5956926,-93.75,-37.109375,-30.76171875,-57.6171875
1756366729.5994403,-136.23046875,-40.52734375,-27.34375,-64.94140625
1756366729.6031885,-103.02734375,-45.8984375,-34.66796875,-56.15234375
1756366729.606936,-45.8984375,-40.0390625,-36.62109375,-52.734375
1756366729.6108131,-43.9453125,-36.1328125,-30.2734375,-62.5
1756366729.6146903,-119.140625,-34.1796875,-35.64453125,-54.6875
1756366729.6185677,-103.515625,-40.0390625,-33.69140625,-64.453125
1756366729.6224446,-48.828125,-41.50390625,-32.2265625,-48.828125
1756366729.6263218,-43.45703125,-36.62109375,-40.52734375,-21.97265625
1756366729.630199,-100.09765625,-45.41015625,-39.55078125,-34.1796875
1756366729.634076,-103.515625,-45.41015625,-33.203125,-33.203125
1756366729.637953,-6.8359375,-33.203125,-31.73828125,-21.484375
1756366729.6418302,8.30078125,-35.64453125,-29.296875,-21.97265625
1756366729.6457074,-60.05859375,-36.62109375,-26.85546875,-31.73828125
1756366729.6495843,-109.375,-36.1328125,-25.390625,-48.828125
1756366729.6534617,-52.734375,-46.38671875,-21.484375,-62.01171875
1756366729.6585135,4.39453125,-46.875,-19.53125,-31.73828125
1756366729.6635656,-46.38671875,-30.76171875,-21.484375,-24.90234375
1756366729.6686175,-89.84375,-19.04296875,-20.01953125,-38.0859375
1756366729.6736696,-72.265625,-19.04296875,-20.5078125,-30.76171875
1756366729.6787214,-20.99609375,-24.90234375,-19.53125,-23.92578125
1756366729.6837735,-41.9921875,-30.76171875,-18.06640625,-15.625
1756366729.6888254,-114.2578125,-36.1328125,-20.01953125,-33.203125
1756366729.6938772,-89.84375,-28.80859375,-20.5078125,-50.78125
1756366729.6989293,-8.7890625,-36.62109375,-27.34375,-58.10546875
1756366729.7039812,-26.85546875,-58.10546875,-29.296875,-46.875
1756366729.7090333,-104.98046875,-51.7578125,-28.80859375,-44.43359375
1756366729.714085,-126.953125,-42.48046875,-29.78515625,-72.75390625
1756366729.7165842,-62.01171875,-32.71484375,-35.15625,-60.546875
1756366729.7190833,-28.3203125,-29.296875,-35.64453125,-41.015625
1756366729.7215822,-96.19140625,-35.64453125,-33.69140625,-61.03515625
1756366729.7240813,-118.1640625,-40.52734375,-42.48046875,-58.10546875
1756366729.7265804,-67.87109375,-33.69140625,-39.0625,-42.96875
1756366729.7290792,-17.578125,-37.59765625,-28.80859375,-46.875
1756366729.7315784,-61.5234375,-54.6875,-38.57421875,-45.41015625
1756366729.7340777,-116.2109375,-46.875,-39.0625,-40.52734375
1756366729.7365766,-67.87109375,-28.80859375,-33.69140625,-17.578125
1756366729.7390757,0.0,-28.80859375,-37.59765625,-12.20703125
1756366729.7415743,-17.08984375,-30.2734375,-34.1796875,-21.484375
1756366729.7440736,-78.125,-26.85546875,-32.71484375,-21.97265625
1756366729.7489269,-72.75390625,-32.2265625,-28.3203125,-29.78515625
1756366729.75378,-0.48828125,-33.203125,-31.25,-10.25390625
1756366729.7586334,-2.44140625,-25.390625,-37.59765625,-13.671875
1756366729.7634866,-90.8203125,-23.92578125,-35.15625,-39.55078125
1756366729.76834,-105.46875,-31.73828125,-40.52734375,-26.3671875
1756366729.7731931,-36.62109375,-32.71484375,-38.0859375,-20.99609375
1756366729.7780464,-4.8828125,-30.2734375,-33.69140625,-36.1328125
1756366729.7828996,-53.22265625,-29.296875,-40.52734375,-32.71484375
1756366729.7877529,-119.62890625,-35.15625,-43.45703125,-31.25
1756366729.792606,-89.35546875,-35.64453125,-31.25,-33.69140625
1756366729.7974594,-14.16015625,-30.76171875,-23.92578125,-30.2734375
1756366729.8023126,-39.0625,-31.73828125,-27.83203125,-22.4609375
1756366729.804923,-108.3984375,-28.80859375,-23.92578125,-42.96875
1756366729.8075333,-62.98828125,-22.4609375,-23.92578125,-42.96875
1756366729.8101437,-0.9765625,-16.6015625,-15.13671875,-25.87890625
1756366729.812754,-48.828125,-16.11328125,-8.30078125,-37.59765625
1756366729.8153644,-119.140625,-11.23046875,-12.6953125,-29.296875
1756366729.8179746,-90.33203125,-8.7890625,-15.13671875,-42.96875
1756366729.8205848,-5.859375,-9.27734375,-16.11328125,-43.9453125
1756366729.8231952,11.71875,-21.484375,-9.765625,-16.11328125
1756366729.8258057,-41.015625,-31.25,-8.30078125,-5.37109375
1756366729.828416,-52.24609375,-14.6484375,-4.8828125,-13.671875
1756366729.831026,13.18359375,-0.9765625,-4.8828125,-5.37109375
1756366729.8336363,51.26953125,11.23046875,1.953125,3.90625
1756366729.8374298,-9.27734375,10.25390625,6.34765625,-7.8125
1756366729.8412232,-56.640625,-19.53125,3.90625,-15.625
1756366729.8450165,-6.34765625,-28.80859375,-3.41796875,-4.39453125
1756366729.8488097,31.73828125,-15.13671875,-9.27734375,2.9296875
1756366729.852603,2.44140625,1.953125,12.6953125,3.41796875
1756366729.8563962,-44.43359375,7.32421875,16.11328125,1.46484375
1756366729.8601897,-27.34375,2.9296875,11.23046875,-7.32421875
1756366729.863983,38.0859375,1.953125,21.484375,12.6953125
1756366729.8677762,33.203125,-6.34765625,11.23046875,23.92578125
1756366729.8715696,-41.50390625,11.23046875,7.8125,5.37109375
1756366729.8753629,-71.77734375,1.953125,3.90625,-13.671875
1756366729.879156,-6.34765625,-23.92578125,-10.25390625,-11.71875
1756366729.8829055,22.4609375,-9.27734375,-8.30078125,-9.765625
1756366729.886655,-57.6171875,0.0,-7.8125,-10.7421875
1756366729.890405,-106.93359375,-0.9765625,-3.41796875,-20.5078125
1756366729.8941543,-32.2265625,0.9765625,-1.46484375,-9.765625
1756366729.8979042,19.04296875,-6.8359375,-5.37109375,1.46484375
1756366729.9016538,-41.9921875,-13.671875,-6.8359375,-8.7890625
1756366729.9054036,-86.42578125,-16.6015625,-9.765625,-15.13671875
1756366729.9091532,-59.5703125,-9.765625,-18.06640625,-17.578125
1756366729.9129028,6.8359375,-9.27734375,-15.13671875,-13.18359375
1756366729.9166524,-1.953125,-14.6484375,-11.71875,-18.06640625
1756366729.920402,-74.21875,-7.32421875,-9.765625,-30.76171875
1756366729.9241517,-75.68359375,-2.44140625,-5.37109375,-30.2734375
1756366729.9292078,-6.8359375,-13.18359375,-17.08984375,-28.80859375
1756366729.9342642,-9.27734375,-15.625,-20.01953125,-29.296875
1756366729.9393203,-69.3359375,-22.94921875,-21.97265625,-17.08984375
1756366729.9443767,-97.16796875,-32.2265625,-18.06640625,-19.04296875
1756366729.9494328,-58.10546875,-18.06640625,-16.11328125,-27.83203125
1756366729.9544892,-38.57421875,-12.20703125,-19.53125,-23.92578125
1756366729.9595454,-70.80078125,-20.5078125,-19.04296875,-19.04296875
1756366729.9646015,-69.3359375,-19.53125,-14.6484375,-29.78515625
1756366729.969658,-10.25390625,-18.5546875,-7.8125,-26.85546875
1756366729.974714,16.6015625,-25.390625,-10.25390625,-9.27734375
1756366729.9797704,-35.15625,-21.484375,-9.765625,-21.97265625
1756366729.9848266,-83.49609375,-24.90234375,-6.34765625,-13.671875
1756366729.9885223,-52.24609375,-26.85546875,0.0,5.859375
1756366729.9922185,4.8828125,-9.765625,4.39453125,-2.44140625
1756366729.9959145,-6.34765625,2.44140625,7.8125,-6.34765625
1756366729.9996102,-52.24609375,17.578125,0.9765625,-7.8125
1756366730.0033062,-36.62109375,17.578125,-1.46484375,-6.8359375
1756366730.007002,3.90625,-6.8359375,4.39453125,0.0
1756366730.010698,-1.953125,-21.484375,-7.8125,13.18359375
1756366730.014394,-57.12890625,-20.5078125,-7.32421875,13.18359375
1756366730.0180898,-58.10546875,-15.13671875,3.90625,18.06640625
1756366730.0217855,10.7421875,-2.9296875,6.34765625,20.5078125
1756366730.0254817,34.66796875,4.39453125,6.8359375,2.44140625
1756366730.0291777,-7.32421875,8.30078125,1.46484375,0.48828125
1756366730.0328696,-46.38671875,3.90625,-1.46484375,2.9296875
1756366730.0365615,-10.7421875,2.9296875,0.9765625,-4.8828125
1756366730.0402532,44.921875,-0.48828125,-2.44140625,1.953125
1756366730.043945,-21.484375,-9.27734375,0.9765625,-5.37109375
1756366730.047637,-81.54296875,-6.8359375,-4.39453125,-31.25
1756366730.051329,-73.73046875,-13.671875,-13.671875,-36.62109375
1756366730.0550206,-49.8046875,-19.53125,-9.27734375,-18.06640625
1756366730.0587125,-19.53125,-15.625,-0.48828125,-4.39453125
1756366730.0624044,-65.4296875,-17.578125,1.46484375,-0.48828125
1756366730.0660963,-70.80078125,-20.99609375,-4.39453125,-25.390625
1756366730.069788,-8.7890625,-28.80859375,-12.20703125,-38.57421875
1756366730.07348,-9.27734375,-32.71484375,-20.5078125,-28.80859375
1756366730.0772822,-78.125,-26.85546875,-17.578125,-26.85546875
1756366730.0810845,-104.00390625,-21.484375,-13.671875,-19.53125
1756366730.0848866,-31.25,-17.08984375,-11.71875,-15.625
1756366730.0886886,24.4140625,-20.01953125,-9.765625,-6.34765625
1756366730.092491,-26.3671875,-35.15625,-13.671875,-5.859375
1756366730.096293,-82.03125,-37.109375,-7.32421875,-24.4140625
1756366730.1000953,-36.62109375,-19.04296875,-1.46484375,-29.78515625
1756366730.1038976,3.90625,2.44140625,-5.37109375,-19.53125
1756366730.1076996,-34.1796875,4.8828125,-8.30078125,-11.23046875
1756366730.111502,-79.58984375,-13.18359375,-15.13671875,-14.6484375
1756366730.115304,-64.453125,-26.85546875,-19.04296875,-25.390625
1756366730.1191063,-9.27734375,-22.94921875,-12.6953125,-16.11328125
1756366730.1240516,-6.34765625,-13.18359375,-12.20703125,-12.20703125
1756366730.128997,-61.5234375,-4.8828125,-13.671875,-13.18359375
1756366730.1339426,-79.1015625,-17.578125,-15.625,-13.671875
1756366730.138888,-18.06640625,-20.5078125,-12.20703125,-18.5546875
1756366730.1438332,-0.9765625,-3.41796875,-11.23046875,-22.4609375
1756366730.148779,-71.77734375,-11.23046875,-19.53125,-36.62109375
1756366730.1537242,-108.3984375,-20.01953125,-16.6015625,-47.8515625
1756366730.1586697,-83.49609375,-23.4375,-19.04296875,-54.6875
1756366730.1636147,-38.57421875,-35.64453125,-21.484375,-56.640625
1756366730.1685605,-57.6171875,-29.78515625,-25.390625,-35.64453125
1756366730.1735058,-111.81640625,-23.4375,-31.25,-39.55078125
1756366730.178451,-75.68359375,-30.2734375,-27.83203125,-57.6171875
1756366730.1810038,-8.30078125,-43.9453125,-29.78515625,-44.43359375
1756366730.1835566,-28.3203125,-50.29296875,-28.80859375,-24.4140625
1756366730.1861095,-99.12109375,-37.109375,-24.90234375,-29.78515625
1756366730.1886623,-93.26171875,-33.69140625,-19.53125,-25.390625
1756366730.191215,-8.7890625,-35.64453125,-15.13671875,-26.3671875
1756366730.1937678,-5.37109375,-24.4140625,-24.90234375,-32.71484375
1756366730.1963203,-81.54296875,-20.99609375,-29.78515625,-20.01953125
1756366730.1988733,-83.984375,-42.96875,-27.34375,-14.6484375
1756366730.201426,-8.7890625,-48.33984375,-23.92578125,-16.6015625
1756366730.203979,-5.37109375,-37.109375,-25.87890625,-9.27734375
1756366730.2065318,-71.77734375,-25.87890625,-20.5078125,5.859375
1756366730.2090845,-86.42578125,-14.6484375,-8.7890625,-1.953125
1756366730.2154498,-22.94921875,-6.8359375,-6.8359375,-2.9296875
1756366730.2218149,8.7890625,-3.90625,-8.7890625,0.9765625
1756366730.2281802,-32.2265625,-14.16015625,-4.8828125,3.41796875
1756366730.2345457,-65.4296875,-19.04296875,-8.7890625,-0.48828125
1756366730.2409103,-32.2265625,-15.13671875,-15.13671875,-15.13671875
1756366730.2472758,10.7421875,-11.23046875,-10.25390625,-19.53125
1756366730.2536411,-26.3671875,-11.23046875,-3.90625,-12.20703125
1756366730.2600062,-88.37890625,-20.99609375,-7.8125,-12.6953125
1756366730.2663715,-66.40625,-29.78515625,-13.18359375,-31.25
1756366730.2727368,2.9296875,-30.2734375,-11.23046875,-30.2734375
1756366730.2791018,-16.6015625,-24.4140625,-15.13671875,-18.5546875
1756366730.2854671,-98.6328125,-18.06640625,-6.34765625,-17.08984375
1756366730.286606,-94.23828125,-18.5546875,6.8359375,-28.3203125
1756366730.2877448,-44.921875,-20.01953125,6.8359375,-41.50390625
1756366730.2888837,-10.7421875,-20.01953125,-6.8359375,-14.16015625
1756366730.2900226,-46.875,-21.484375,-12.6953125,-10.7421875
1756366730.2911613,-106.93359375,-30.2734375,-9.27734375,-21.97265625
1756366730.2923002,-47.36328125,-27.83203125,-10.7421875,-13.18359375
1756366730.2934391,6.8359375,-15.13671875,-11.23046875,-7.8125
1756366730.2945778,-32.2265625,-17.578125,-10.7421875,2.44140625
1756366730.2957168,-70.3125,-18.5546875,-12.20703125,-15.13671875
1756366730.2968557,-53.22265625,-10.7421875,-14.6484375,-26.85546875
1756366730.2979944,18.06640625,-9.765625,-13.671875,-11.71875
1756366730.2991333,9.765625,-9.27734375,-11.71875,-9.27734375
1756366730.304018,-56.15234375,-28.3203125,-18.5546875,-21.97265625
1756366730.3089027,-52.24609375,-63.96484375,-22.4609375,-25.87890625
1756366730.3137877,14.6484375,-54.6875,-22.4609375,-1.46484375
1756366730.3186722,-1.953125,-23.92578125,-21.97265625,3.90625
1756366730.323557,-103.02734375,-12.20703125,-20.01953125,-25.390625
1756366730.3284416,-111.328125,-8.7890625,-21.484375,-41.015625
1756366730.3333266,-36.62109375,-17.08984375,-17.578125,-31.73828125
1756366730.3382113,-1.46484375,-18.5546875,-16.11328125,-24.90234375
1756366730.343096,-64.94140625,-6.34765625,-19.04296875,-35.15625
1756366730.3479807,-156.25,-20.01953125,-12.6953125,-33.203125
1756366730.3528657,-79.1015625,-34.66796875,-19.53125,-20.99609375
1756366730.3577502,38.57421875,-33.69140625,-25.390625,-23.92578125
1756366730.361559,-6.8359375,-27.34375,-17.578125,-25.390625
1756366730.3653672,-88.37890625,-29.296875,-6.8359375,-37.59765625
1756366730.3691757,-61.5234375,-27.34375,-3.41796875,-20.99609375
1756366730.3729842,-12.20703125,-23.92578125,-4.8828125,2.9296875
1756366730.376793,-24.90234375,-16.6015625,-7.8125,-6.8359375
1756366730.380601,-64.453125,-8.7890625,-9.765625,-18.5546875
1756366730.3844094,-77.1484375,-19.04296875,-16.11328125,-6.8359375
1756366730.388218,-8.7890625,-36.62109375,-18.06640625,-10.25390625
1756366730.3920264,6.8359375,-26.85546875,-24.4140625,-25.87890625
1756366730.395835,-71.2890625,-42.96875,-40.52734375,-32.2265625
1756366730.3996434,-83.0078125,-62.01171875,-30.76171875,-36.1328125
1756366730.403452,-29.78515625,-43.9453125,-30.76171875,-26.3671875
1756366730.4072576,8.7890625,-32.71484375,-26.85546875,-16.6015625
1756366730.4110632,-38.57421875,-19.04296875,-16.11328125,-12.6953125
1756366730.414869,-105.46875,-28.3203125,-22.4609375,-25.390625
1756366730.4186747,-70.80078125,-29.78515625,-20.5078125,-18.06640625
1756366730.4224803,-21.97265625,-31.25,-26.85546875,-11.71875
1756366730.4262862,-31.73828125,-41.9921875,-30.2734375,-13.671875
1756366730.430092,-87.40234375,-44.921875,-26.3671875,-31.73828125
1756366730.4338975,-109.86328125,-41.50390625,-21.484375,-51.26953125
1756366730.4377031,-20.99609375,-41.015625,-18.06640625,-22.94921875
1756366730.4415088,5.37109375,-35.64453125,-23.4375,-20.5078125
1756366730.4453146,-83.984375,-28.3203125,-24.4140625,-42.96875
1756366730.4491203,-117.67578125,-26.3671875,-19.04296875,-41.9921875
1756366730.4529314,-30.76171875,-18.5546875,-9.765625,-29.78515625
1756366730.4567423,-0.48828125,-23.4375,0.48828125,-19.53125
1756366730.4605536,-63.4765625,-29.296875,-6.8359375,-38.0859375
1756366730.4643643,-81.54296875,-23.4375,-5.859375,-50.78125
1756366730.4681756,-40.0390625,-24.90234375,-1.953125,-35.64453125
1756366730.4719868,6.8359375,-36.1328125,-11.23046875,-10.25390625
1756366730.475798,-45.41015625,-38.0859375,-12.20703125,-16.6015625
1756366730.479609,-112.3046875,-27.83203125,-15.625,-36.1328125
1756366730.48342,-53.22265625,-22.4609375,-12.20703125,-26.85546875
1756366730.487231,3.41796875,-16.6015625,-11.23046875,-0.9765625
1756366730.491042,-43.45703125,-12.6953125,-12.20703125,-2.9296875
1756366730.4948533,-73.73046875,-22.94921875,-8.30078125,-12.6953125
1756366730.4985297,-26.3671875,-34.1796875,-8.30078125,-23.4375
1756366730.502206,30.2734375,-32.2265625,-11.71875,-17.578125
1756366730.5058827,35.15625,-32.2265625,-13.671875,6.34765625
1756366730.5095592,-49.31640625,-34.66796875,-14.16015625,-16.11328125
1756366730.5132356,-76.171875,-21.484375,-15.625,-24.4140625
1756366730.516912,-9.27734375,-26.85546875,-13.671875,-12.6953125
1756366730.5205884,-9.27734375,-34.1796875,-15.625,-27.83203125
1756366730.5242648,-55.6640625,-31.25,-19.04296875,-17.08984375
1756366730.5279412,-76.66015625,-36.62109375,-20.5078125,1.46484375
1756366730.531618,-53.7109375,-25.390625,-19.04296875,-16.6015625
1756366730.5352943,-5.37109375,-17.08984375,-20.99609375,-28.80859375
1756366730.5389707,-32.2265625,-21.484375,-25.390625,-34.1796875
1756366730.5427003,-86.9140625,-27.83203125,-21.97265625,-33.69140625
1756366730.54643,-50.78125,-29.296875,-17.578125,-26.3671875
1756366730.5501597,12.6953125,-17.08984375,-10.7421875,-20.5078125
1756366730.5538893,-3.90625,-21.97265625,-4.8828125,-33.69140625
1756366730.5576189,-73.73046875,-33.203125,-15.13671875,-31.25
1756366730.5613484,-72.265625,-44.921875,-24.4140625,-18.06640625
1756366730.5650785,-19.53125,-45.8984375,-20.01953125,-13.18359375
1756366730.5688078,0.9765625,-26.3671875,-14.6484375,1.46484375
1756366730.5725374,-47.36328125,-16.11328125,-14.16015625,-11.71875
1756366730.5762672,-90.8203125,-14.6484375,-14.6484375,-32.71484375
1756366730.5799968,-36.62109375,-18.5546875,-12.6953125,-27.34375
1756366730.5837264,0.48828125,-26.85546875,-16.11328125,-24.4140625
1756366730.588732,-46.875,-37.109375,-18.5546875,-10.7421875
1756366730.5937376,-87.40234375,-50.29296875,-30.2734375,-26.3671875
1756366730.598743,-62.5,-38.0859375,-31.25,-35.64453125
1756366730.6037486,-3.90625,-13.18359375,-21.97265625,-20.5078125
1756366730.6087542,-18.06640625,-15.625,-21.484375,-23.92578125
1756366730.6137595,-89.84375,-20.99609375,-20.01953125,-20.99609375
1756366730.618765,-56.640625,-26.3671875,-23.92578125,-18.5546875
1756366730.6237707,4.39453125,-54.6875,-24.90234375,-5.37109375
1756366730.6287763,-13.18359375,-61.5234375,-20.5078125,-2.9296875
1756366730.633782,-85.9375,-35.15625,-14.16015625,-14.6484375
1756366730.6387873,-69.3359375,-15.625,-30.2734375,-17.08984375
1756366730.6437929,30.2734375,-15.13671875,-32.71484375,-18.06640625
1756366730.6463163,25.390625,-14.16015625,-27.34375,-29.296875
1756366730.6488404,-49.31640625,-11.23046875,-28.80859375,-44.921875
1756366730.6513643,-74.21875,-11.71875,-30.76171875,-51.7578125
1756366730.653888,-29.296875,-20.5078125,-32.2265625,-56.15234375
1756366730.6564116,-25.390625,-28.3203125,-29.78515625,-45.41015625
1756366730.6589355,-89.35546875,-35.64453125,-31.25,-45.8984375
1756366730.6614594,-122.0703125,-40.0390625,-31.73828125,-53.22265625
1756366730.663983,-62.5,-38.0859375,-30.2734375,-36.62109375
1756366730.6665068,5.859375,-51.7578125,-31.25,-24.90234375
1756366730.669031,-23.92578125,-49.8046875,-26.85546875,-33.69140625
1756366730.6715546,-100.09765625,-23.92578125,-27.83203125,-29.296875
1756366730.6740782,-85.44921875,-12.6953125,-29.296875,-24.90234375
1756366730.6780574,-9.765625,-16.11328125,-22.94921875,-24.90234375
1756366730.6820369,-20.99609375,-23.4375,-23.4375,-16.6015625
1756366730.686016,-81.54296875,-34.66796875,-21.484375,-24.90234375
1756366730.6899953,-93.75,-34.66796875,-21.97265625,-17.578125
1756366730.6939747,-45.41015625,-26.85546875,-17.08984375,-9.27734375
1756366730.697954,-18.06640625,-29.296875,-14.16015625,-11.71875
1756366730.7019331,-67.3828125,-20.99609375,-14.6484375,-11.23046875
1756366730.7059126,-90.8203125,-18.5546875,-16.11328125,-11.71875
1756366730.7098918,-51.26953125,-15.625,-22.94921875,-13.671875
1756366730.713871,4.39453125,-14.16015625,-23.92578125,-13.18359375
1756366730.7178504,-25.87890625,-23.92578125,-16.6015625,-34.66796875
1756366730.7218297,-82.51953125,-34.66796875,-13.18359375,-24.90234375
1756366730.7265365,-62.98828125,-28.3203125,-16.11328125,-10.25390625
1756366730.731243,18.5546875,-7.32421875,-20.99609375,-10.25390625
1756366730.7359493,-4.39453125,-4.39453125,-17.08984375,-7.8125
1756366730.7406557,-92.7734375,-9.27734375,-9.765625,-15.625
1756366730.7453623,-89.84375,-7.32421875,-9.765625,-15.13671875
1756366730.750069,-28.80859375,-12.20703125,-9.27734375,-6.34765625
1756366730.7547753,0.48828125,-15.625,-5.37109375,3.41796875
1756366730.759482,-57.12890625,-8.30078125,-9.765625,-9.765625
1756366730.7641883,-58.10546875,-13.18359375,-6.34765625,-19.53125
1756366730.768895,-13.18359375,-28.80859375,-3.41796875,-1.46484375
1756366730.7736013,-6.34765625,-33.203125,-17.578125,-6.8359375
1756366730.778308,-42.48046875,-10.7421875,-9.27734375,-16.6015625
1756366730.7821295,-72.75390625,14.16015625,2.9296875,-14.16015625
1756366730.7859511,-29.296875,21.484375,-0.9765625,-11.71875
1756366730.7897727,16.6015625,17.578125,9.765625,-3.90625
1756366730.7935944,-11.23046875,5.37109375,16.11328125,9.27734375
1756366730.797416,-51.7578125,-1.953125,5.859375,1.953125
1756366730.8012376,-58.59375,2.9296875,0.0,-15.13671875
1756366730.8050592,7.8125,7.8125,-6.8359375,-14.16015625
1756366730.8088808,10.25390625,2.9296875,-10.25390625,-5.859375
1756366730.8127024,-76.171875,0.9765625,-7.32421875,-22.94921875
1756366730.816524,-70.3125,-7.32421875,-13.18359375,-25.390625
1756366730.8203456,1.46484375,-7.32421875,-8.30078125,-15.13671875
1756366730.8241673,14.6484375,3.41796875,6.34765625,2.44140625
1756366730.8291469,-56.640625,-2.9296875,5.37109375,4.39453125
1756366730.8341265,-81.0546875,-14.16015625,-1.46484375,-38.57421875
1756366730.839106,-31.25,-17.08984375,-2.9296875,-40.0390625
1756366730.844086,8.7890625,-8.30078125,-0.9765625,-17.578125
1756366730.8490655,-43.45703125,-3.90625,-0.9765625,-16.11328125
1756366730.8540452,-101.5625,-17.578125,-2.9296875,-21.97265625
1756366730.8590248,-44.43359375,-18.06640625,-4.39453125,-13.18359375
1756366730.8640044,-2.44140625,-6.8359375,-2.9296875,-24.90234375
1756366730.8689842,-54.6875,-4.39453125,-4.39453125,-33.203125
1756366730.8739638,-97.65625,-1.46484375,-6.34765625,-19.04296875
1756366730.8789434,-59.08203125,-2.44140625,2.44140625,-24.4140625
1756366730.883923,4.8828125,-3.41796875,5.859375,-37.59765625
1756366730.8864417,-28.3203125,-0.48828125,3.41796875,-27.83203125
1756366730.88896,-87.890625,-0.48828125,4.39453125,-19.53125
1756366730.8914783,-55.17578125,-3.41796875,7.8125,-20.5078125
1756366730.8939972,2.44140625,-5.859375,10.25390625,-8.7890625
1756366730.8965156,5.37109375,-3.41796875,7.8125,7.32421875
1756366730.899034,-48.828125,-7.32421875,5.37109375,-2.44140625
1756366730.901553,-60.05859375,-10.25390625,3.90625,3.90625
1756366730.904071,-11.71875,-11.23046875,-3.90625,10.25390625
1756366730.9065895,17.578125,-10.7421875,9.27734375,-5.37109375
1756366730.9091082,2.44140625,-7.8125,7.8125,-2.9296875
1756366730.9116268,-72.75390625,1.953125,1.46484375,-7.8125
1756366730.9141452,-76.171875,-2.44140625,10.25390625,3.41796875
1756366730.918012,-16.6015625,-15.13671875,2.9296875,15.13671875
1756366730.9218793,-47.8515625,-9.27734375,-2.9296875,-20.5078125
1756366730.9257462,-88.37890625,-5.859375,-1.46484375,-37.59765625
1756366730.929613,-71.77734375,-10.7421875,0.48828125,-28.80859375
1756366730.9334805,-33.203125,-20.5078125,-1.953125,-23.92578125
1756366730.9373472,-18.5546875,-27.34375,2.44140625,-26.3671875
1756366730.941214,-33.203125,-15.625,6.34765625,-15.13671875
1756366730.9450812,-45.41015625,-11.71875,6.34765625,7.32421875
1756366730.948948,-1.46484375,-13.18359375,14.16015625,6.34765625
1756366730.952815,16.6015625,-8.30078125,11.23046875,-10.7421875
1756366730.9566822,-48.33984375,-3.90625,-8.7890625,-1.953125
1756366730.960549,-80.078125,-4.39453125,0.0,9.765625
1756366730.9641674,-21.97265625,-0.48828125,11.71875,-5.859375
1756366730.9677856,15.13671875,2.44140625,10.7421875,-22.4609375
1756366730.9714036,-40.0390625,-2.9296875,4.39453125,-14.6484375
1756366730.9750218,-97.65625,-16.6015625,-2.44140625,-3.41796875
1756366730.97864,-58.10546875,-8.30078125,2.44140625,-9.765625
1756366730.9822583,13.671875,-0.48828125,6.8359375,-3.90625
1756366730.9858766,-2.9296875,-2.44140625,10.7421875,-2.44140625
1756366730.9894948,-56.15234375,0.0,2.44140625,-9.765625
1756366730.993113,-41.015625,-5.859375,-1.953125,-2.9296875
1756366730.996731,-11.23046875,-11.23046875,0.48828125,-8.30078125
1756366731.0003493,-9.27734375,-10.25390625,0.48828125,-13.18359375
1756366731.0039675,-65.4296875,-14.16015625,0.9765625,-19.53125
1756366731.0076933,-92.7734375,-12.20703125,-10.25390625,-25.87890625
1756366731.011419,-48.828125,-12.20703125,-16.6015625,-12.6953125
1756366731.0151448,-17.578125,-17.578125,-17.578125,-4.8828125
1756366731.0188708,-57.6171875,-18.06640625,-20.01953125,-32.71484375
1756366731.0225966,-101.07421875,-18.06640625,-19.53125,-54.6875
1756366731.0263224,-62.98828125,-30.2734375,-22.94921875,-44.921875
1756366731.030048,-20.99609375,-47.36328125,-26.3671875,-42.96875
1756366731.033774,-41.9921875,-53.7109375,-25.87890625,-44.921875
1756366731.0375,-91.796875,-38.57421875,-23.92578125,-41.50390625
1756366731.0412257,-84.9609375,-12.6953125,-13.671875,-34.1796875
1756366731.0449514,-41.9921875,-18.06640625,-14.6484375,-32.71484375
1756366731.0486772,-57.12890625,-22.94921875,-20.01953125,-55.17578125
1756366731.0536094,-125.0,-20.99609375,-18.06640625,-62.5
1756366731.0585413,-120.60546875,-31.73828125,-20.99609375,-34.1796875
1756366731.0634737,-46.875,-38.57421875,-20.5078125,-25.390625
1756366731.0684054,-23.4375,-39.0625,-20.99609375,-34.1796875
1756366731.0733376,-83.984375,-40.52734375,-22.4609375,-36.1328125
1756366731.0782695,-97.65625,-66.40625,-31.25,-64.94140625
1756366731.0832016,-24.90234375,-53.7109375,-25.87890625,-41.9921875
1756366731.0881338,0.0,-16.6015625,-14.16015625,0.48828125
1756366731.0930655,-62.01171875,-20.01953125,-20.5078125,-37.109375
1756366731.097998,-98.6328125,-21.97265625,-22.94921875,-40.0390625
1756366731.1029298,-60.05859375,-21.484375,-29.78515625,-12.20703125
1756366731.107862,-10.7421875,-28.80859375,-25.390625,-8.30078125
1756366731.1116626,-34.66796875,-29.296875,-20.99609375,-34.1796875
1756366731.1154635,-106.93359375,-30.2734375,-29.78515625,-59.08203125
1756366731.119264,-80.078125,-26.85546875,-28.80859375,-56.640625
1756366731.1230648,-4.39453125,-42.48046875,-15.625,-41.50390625
1756366731.1268656,-21.484375,-58.59375,-9.27734375,-39.55078125
1756366731.1306665,-98.14453125,-26.85546875,-11.71875,-40.0390625
1756366731.134467,-96.19140625,-31.73828125,-14.6484375,-43.9453125
1756366731.1382678,-24.90234375,-53.22265625,-13.18359375,-48.33984375
1756366731.1420684,-33.203125,-33.69140625,-17.08984375,-55.6640625
1756366731.145869,-101.5625,-24.4140625,-15.13671875,-47.8515625
1756366731.14967,-114.74609375,-16.11328125,-10.7421875,-40.52734375
1756366731.1534705,-49.8046875,-6.8359375,-11.23046875,-49.31640625
1756366731.1584845,-5.859375,-14.6484375,-15.13671875,-51.7578125
1756366731.1634986,-40.52734375,-20.99609375,-19.04296875,-41.015625
1756366731.1685128,-116.69921875,-27.34375,-16.11328125,-44.921875
1756366731.1735268,-58.59375,-29.78515625,-17.578125,-18.5546875
1756366731.1785407,13.671875,-34.1796875,-15.625,1.46484375
1756366731.183555,-27.34375,-47.36328125,-19.04296875,-11.71875
1756366731.188569,-80.56640625,-39.0625,-19.53125,-15.625
1756366731.193583,-62.98828125,-10.7421875,-23.4375,-32.71484375
1756366731.198597,7.8125,-3.90625,-16.11328125,-26.3671875
1756366731.2036111,10.25390625,-11.23046875,-4.39453125,-21.97265625
1756366731.2086253,-60.05859375,-8.7890625,-13.18359375,-26.85546875
1756366731.2136393,-57.6171875,-6.8359375,-11.71875,-12.6953125
1756366731.2161238,12.20703125,-20.5078125,-8.30078125,-12.6953125
1756366731.218608,16.11328125,-24.90234375,-15.13671875,-17.08984375
1756366731.2210927,-59.5703125,-23.4375,-14.16015625,-14.16015625
1756366731.223577,-97.16796875,-26.85546875,-5.37109375,-19.04296875
1756366731.2260616,-29.296875,-24.90234375,-5.37109375,-23.92578125
1756366731.228546,12.6953125,-23.92578125,-8.7890625,-21.97265625
1756366731.2310305,-33.69140625,-20.5078125,-6.8359375,-26.85546875
1756366731.233515,-80.078125,-12.20703125,0.48828125,-23.92578125
1756366731.235999,-45.41015625,0.9765625,3.41796875,-26.85546875
1756366731.238484,7.32421875,-2.9296875,-2.44140625,-38.57421875
1756366731.2409682,-13.18359375,-23.92578125,-2.44140625,-38.0859375
1756366731.2434528,-73.73046875,-12.20703125,7.32421875,-41.9921875
1756366731.2509985,-60.546875,-4.39453125,-2.9296875,-17.578125
1756366731.2585442,-12.6953125,-26.3671875,-15.625,-25.87890625
1756366731.26609,-20.99609375,-18.06640625,-3.41796875,-36.62109375
1756366731.2736354,-67.3828125,-1.46484375,-2.44140625,-24.90234375
1756366731.281181,-57.6171875,-5.37109375,-15.13671875,-28.80859375
1756366731.2887268,5.859375,-14.6484375,-12.20703125,-20.01953125
1756366731.2962725,9.27734375,-15.625,-10.25390625,-27.34375
1756366731.3038182,-61.03515625,-9.27734375,-12.6953125,-34.1796875
1756366731.3113637,-73.73046875,-1.46484375,-9.27734375,-18.06640625
1756366731.3189094,2.44140625,-0.9765625,-0.9765625,-4.8828125
1756366731.326455,49.31640625,-0.48828125,4.39453125,-4.8828125
1756366731.3340008,-4.8828125,0.9765625,6.34765625,-2.9296875
1756366731.3343542,-53.22265625,10.25390625,9.27734375,-14.16015625
1756366731.3347075,2.9296875,17.08984375,11.23046875,-10.7421875
1756366731.335061,53.7109375,9.27734375,11.23046875,12.6953125
1756366731.3354144,18.06640625,0.9765625,11.71875,14.6484375
1756366731.3357675,-32.71484375,1.46484375,13.671875,-3.90625
1756366731.336121,-29.78515625,4.39453125,12.6953125,-1.953125
1756366731.336475,22.4609375,3.90625,11.23046875,10.7421875
1756366731.336828,32.71484375,10.7421875,7.32421875,20.01953125
1756366731.337181,-34.1796875,9.27734375,9.27734375,11.23046875
1756366731.337535,-51.26953125,4.8828125,1.46484375,-9.27734375
1756366731.3378882,3.41796875,4.39453125,-0.9765625,-19.04296875
1756366731.3382416,23.92578125,-3.90625,12.20703125,-17.578125
1756366731.3416517,-31.73828125,-5.37109375,6.8359375,-13.671875
1756366731.3450618,-62.5,-10.7421875,-1.953125,-21.97265625
1756366731.348472,-11.23046875,-31.73828125,0.0,-22.94921875
1756366731.351882,11.23046875,-25.390625,-3.41796875,-13.18359375
1756366731.355292,-28.80859375,-5.37109375,-7.8125,-12.20703125
1756366731.3587022,-58.10546875,8.7890625,-6.8359375,-12.20703125
1756366731.3621123,-44.921875,5.37109375,-3.41796875,-12.6953125
1756366731.3655224,-0.48828125,-8.7890625,-6.34765625,-7.8125
1756366731.3689325,-8.30078125,-13.671875,-3.41796875,1.953125
1756366731.3723426,-61.03515625,-7.32421875,-1.953125,-21.97265625
1756366731.3757527,-63.4765625,1.953125,-3.41796875,-36.1328125
1756366731.3791628,7.8125,-8.30078125,4.39453125,-22.4609375
1756366731.3840475,23.92578125,-17.08984375,4.39453125,-21.484375
1756366731.3889327,-52.734375,-16.11328125,4.39453125,-18.06640625
1756366731.3938177,-81.0546875,-20.99609375,3.90625,-10.25390625
1756366731.3987026,-25.390625,-21.484375,-4.8828125,-15.13671875
1756366731.4035876,21.484375,-11.23046875,-0.48828125,5.37109375
1756366731.4084723,-31.25,-2.44140625,4.8828125,2.44140625
1756366731.4133575,-66.40625,-4.39453125,5.37109375,-22.94921875
1756366731.4182425,-9.27734375,-3.41796875,3.41796875,-8.30078125
1756366731.4231274,22.4609375,5.859375,-4.8828125,1.953125
1756366731.4280124,-13.671875,-7.32421875,-6.8359375,-14.16015625
1756366731.432897,-66.40625,-15.625,-10.25390625,-35.64453125
1756366731.4377823,-42.48046875,-3.41796875,-7.8125,-25.390625
1756366731.4415214,15.13671875,-10.7421875,0.0,-7.32421875
1756366731.4452603,6.8359375,-12.6953125,-8.7890625,-20.01953125
1756366731.4489996,-66.89453125,-10.7421875,-8.30078125,-27.34375
1756366731.4527388,-72.265625,-13.671875,3.90625,-33.69140625
1756366731.456478,18.06640625,-3.90625,0.9765625,-22.4609375
1756366731.460217,43.45703125,-9.765625,-0.9765625,-4.8828125
1756366731.463956,-11.71875,-15.625,-0.9765625,-11.23046875
1756366731.4676952,-37.109375,-18.5546875,-6.8359375,-15.13671875
1756366731.4714344,2.9296875,-26.3671875,-4.8828125,-19.53125
1756366731.4751737,41.015625,-7.8125,-0.48828125,0.0
1756366731.4789126,0.48828125,-0.48828125,-0.9765625,15.13671875
1756366731.4826517,-48.828125,-15.13671875,2.44140625,0.9765625
1756366731.4865074,-15.13671875,-10.7421875,3.90625,4.39453125
1756366731.4903634,46.875,-3.41796875,3.90625,12.20703125
1756366731.494219,24.4140625,-1.46484375,6.34765625,-3.90625
1756366731.4980748,-50.29296875,-4.39453125,3.90625,-10.7421875
1756366731.5019307,-46.38671875,-6.8359375,1.46484375,-9.765625
1756366731.5057864,13.671875,-9.27734375,1.46484375,-5.859375
1756366731.509642,26.3671875,-10.7421875,0.48828125,6.8359375
1756366731.513498,-30.2734375,-8.30078125,-1.46484375,4.8828125
1756366731.5173538,-54.6875,-16.6015625,-3.41796875,-1.46484375
1756366731.5212097,5.859375,-25.87890625,-0.48828125,-1.46484375
1756366731.5250654,28.3203125,-20.01953125,-5.859375,-2.9296875
1756366731.5289211,-48.828125,-10.25390625,-1.953125,-9.27734375
1756366731.5326896,-101.5625,-14.16015625,-5.37109375,-12.6953125
1756366731.5364585,-45.8984375,-20.01953125,-9.27734375,-6.8359375
1756366731.5402267,3.41796875,-15.13671875,-4.39453125,-14.16015625
1756366731.5439954,-6.34765625,-6.34765625,-9.765625,-24.90234375
1756366731.5477638,-61.03515625,-14.6484375,-13.671875,-24.90234375
